#  E (eV)   dos(E)     Int dos(E) EFermi =   12.930 eV
  -5.000 -0.4120E-81 -0.8240E-83
  -4.980 -0.4113E-81 -0.1647E-82
  -4.960 -0.4107E-81 -0.2468E-82
  -4.940 -0.4100E-81 -0.3288E-82
  -4.920 -0.4094E-81 -0.4107E-82
  -4.900 -0.4087E-81 -0.4924E-82
  -4.880 -0.4081E-81 -0.5740E-82
  -4.860 -0.4074E-81 -0.6555E-82
  -4.840 -0.4068E-81 -0.7369E-82
  -4.820 -0.4061E-81 -0.8181E-82
  -4.800 -0.4055E-81 -0.8992E-82
  -4.780 -0.4048E-81 -0.9801E-82
  -4.760 -0.4042E-81 -0.1061E-81
  -4.740 -0.4035E-81 -0.1142E-81
  -4.720 -0.4029E-81 -0.1222E-81
  -4.700 -0.4022E-81 -0.1303E-81
  -4.680 -0.4016E-81 -0.1383E-81
  -4.660 -0.4009E-81 -0.1463E-81
  -4.640 -0.4003E-81 -0.1543E-81
  -4.620 -0.3996E-81 -0.1623E-81
  -4.600 -0.3990E-81 -0.1703E-81
  -4.580 -0.3983E-81 -0.1783E-81
  -4.560 -0.3977E-81 -0.1862E-81
  -4.540 -0.3971E-81 -0.1942E-81
  -4.520 -0.3964E-81 -0.2021E-81
  -4.500 -0.3958E-81 -0.2100E-81
  -4.480 -0.3951E-81 -0.2179E-81
  -4.460 -0.3945E-81 -0.2258E-81
  -4.440 -0.3939E-81 -0.2337E-81
  -4.420 -0.3932E-81 -0.2415E-81
  -4.400 -0.3926E-81 -0.2494E-81
  -4.380 -0.3919E-81 -0.2572E-81
  -4.360 -0.3913E-81 -0.2651E-81
  -4.340 -0.3907E-81 -0.2729E-81
  -4.320 -0.3900E-81 -0.2807E-81
  -4.300 -0.3894E-81 -0.2885E-81
  -4.280 -0.3888E-81 -0.2962E-81
  -4.260 -0.3881E-81 -0.3040E-81
  -4.240 -0.3875E-81 -0.3117E-81
  -4.220 -0.3869E-81 -0.3195E-81
  -4.200 -0.3862E-81 -0.3272E-81
  -4.180 -0.3856E-81 -0.3349E-81
  -4.160 -0.3850E-81 -0.3426E-81
  -4.140 -0.3843E-81 -0.3503E-81
  -4.120 -0.3837E-81 -0.3580E-81
  -4.100 -0.3831E-81 -0.3656E-81
  -4.080 -0.3825E-81 -0.3733E-81
  -4.060 -0.3818E-81 -0.3809E-81
  -4.040 -0.3812E-81 -0.3885E-81
  -4.020 -0.3806E-81 -0.3962E-81
  -4.000 -0.3799E-81 -0.4038E-81
  -3.980 -0.3793E-81 -0.4113E-81
  -3.960 -0.3787E-81 -0.4189E-81
  -3.940 -0.3781E-81 -0.4265E-81
  -3.920 -0.3775E-81 -0.4340E-81
  -3.900 -0.3768E-81 -0.4416E-81
  -3.880 -0.3762E-81 -0.4491E-81
  -3.860 -0.3756E-81 -0.4566E-81
  -3.840 -0.3750E-81 -0.4641E-81
  -3.820 -0.3743E-81 -0.4716E-81
  -3.800 -0.3737E-81 -0.4791E-81
  -3.780 -0.3731E-81 -0.4865E-81
  -3.760 -0.3725E-81 -0.4940E-81
  -3.740 -0.3719E-81 -0.5014E-81
  -3.720 -0.3713E-81 -0.5088E-81
  -3.700 -0.3706E-81 -0.5162E-81
  -3.680 -0.3700E-81 -0.5236E-81
  -3.660 -0.3694E-81 -0.5310E-81
  -3.640 -0.3688E-81 -0.5384E-81
  -3.620 -0.3682E-81 -0.5458E-81
  -3.600 -0.3676E-81 -0.5531E-81
  -3.580 -0.3670E-81 -0.5605E-81
  -3.560 -0.3663E-81 -0.5678E-81
  -3.540 -0.3657E-81 -0.5751E-81
  -3.520 -0.3651E-81 -0.5824E-81
  -3.500 -0.3645E-81 -0.5897E-81
  -3.480 -0.3639E-81 -0.5970E-81
  -3.460 -0.3633E-81 -0.6042E-81
  -3.440 -0.3627E-81 -0.6115E-81
  -3.420 -0.3621E-81 -0.6187E-81
  -3.400 -0.3615E-81 -0.6260E-81
  -3.380 -0.3609E-81 -0.6332E-81
  -3.360 -0.3603E-81 -0.6404E-81
  -3.340 -0.3597E-81 -0.6476E-81
  -3.320 -0.3591E-81 -0.6548E-81
  -3.300 -0.3584E-81 -0.6619E-81
  -3.280 -0.3578E-81 -0.6691E-81
  -3.260 -0.3572E-81 -0.6762E-81
  -3.240 -0.3566E-81 -0.6834E-81
  -3.220 -0.3560E-81 -0.6905E-81
  -3.200 -0.3554E-81 -0.6976E-81
  -3.180 -0.3548E-81 -0.7047E-81
  -3.160 -0.3542E-81 -0.7118E-81
  -3.140 -0.3536E-81 -0.7189E-81
  -3.120 -0.3530E-81 -0.7259E-81
  -3.100 -0.3524E-81 -0.7330E-81
  -3.080 -0.3518E-81 -0.7400E-81
  -3.060 -0.3512E-81 -0.7470E-81
  -3.040 -0.3507E-81 -0.7540E-81
  -3.020 -0.3501E-81 -0.7610E-81
  -3.000 -0.3495E-81 -0.7680E-81
  -2.980 -0.3489E-81 -0.7750E-81
  -2.960 -0.3483E-81 -0.7820E-81
  -2.940 -0.3477E-81 -0.7889E-81
  -2.920 -0.3471E-81 -0.7959E-81
  -2.900 -0.3465E-81 -0.8028E-81
  -2.880 -0.3459E-81 -0.8097E-81
  -2.860 -0.3453E-81 -0.8166E-81
  -2.840 -0.3447E-81 -0.8235E-81
  -2.820 -0.3441E-81 -0.8304E-81
  -2.800 -0.3436E-81 -0.8373E-81
  -2.780 -0.3430E-81 -0.8441E-81
  -2.760 -0.3424E-81 -0.8510E-81
  -2.740 -0.3418E-81 -0.8578E-81
  -2.720 -0.3412E-81 -0.8646E-81
  -2.700 -0.3406E-81 -0.8714E-81
  -2.680 -0.3400E-81 -0.8783E-81
  -2.660 -0.3395E-81 -0.8850E-81
  -2.640 -0.3389E-81 -0.8918E-81
  -2.620 -0.3383E-81 -0.8986E-81
  -2.600 -0.3377E-81 -0.9053E-81
  -2.580 -0.3371E-81 -0.9121E-81
  -2.560 -0.3365E-81 -0.9188E-81
  -2.540 -0.3360E-81 -0.9255E-81
  -2.520 -0.3354E-81 -0.9322E-81
  -2.500 -0.3348E-81 -0.9389E-81
  -2.480 -0.3342E-81 -0.9456E-81
  -2.460 -0.3336E-81 -0.9523E-81
  -2.440 -0.3331E-81 -0.9590E-81
  -2.420 -0.3325E-81 -0.9656E-81
  -2.400 -0.3319E-81 -0.9722E-81
  -2.380 -0.3313E-81 -0.9789E-81
  -2.360 -0.3308E-81 -0.9855E-81
  -2.340 -0.3302E-81 -0.9921E-81
  -2.320 -0.3296E-81 -0.9987E-81
  -2.300 -0.3290E-81 -0.1005E-80
  -2.280 -0.3285E-81 -0.1012E-80
  -2.260 -0.3279E-81 -0.1018E-80
  -2.240 -0.3273E-81 -0.1025E-80
  -2.220 -0.3268E-81 -0.1031E-80
  -2.200 -0.3262E-81 -0.1038E-80
  -2.180 -0.3256E-81 -0.1045E-80
  -2.160 -0.3251E-81 -0.1051E-80
  -2.140 -0.3245E-81 -0.1057E-80
  -2.120 -0.3239E-81 -0.1064E-80
  -2.100 -0.3234E-81 -0.1070E-80
  -2.080 -0.3228E-81 -0.1077E-80
  -2.060 -0.3222E-81 -0.1083E-80
  -2.040 -0.3217E-81 -0.1090E-80
  -2.020 -0.3211E-81 -0.1096E-80
  -2.000 -0.3205E-81 -0.1103E-80
  -1.980 -0.3200E-81 -0.1109E-80
  -1.960 -0.3194E-81 -0.1115E-80
  -1.940 -0.3188E-81 -0.1122E-80
  -1.920 -0.3183E-81 -0.1128E-80
  -1.900 -0.3177E-81 -0.1134E-80
  -1.880 -0.3172E-81 -0.1141E-80
  -1.860 -0.3166E-81 -0.1147E-80
  -1.840 -0.3160E-81 -0.1153E-80
  -1.820 -0.3155E-81 -0.1160E-80
  -1.800 -0.3149E-81 -0.1166E-80
  -1.780 -0.3144E-81 -0.1172E-80
  -1.760 -0.3138E-81 -0.1179E-80
  -1.740 -0.3133E-81 -0.1185E-80
  -1.720 -0.3127E-81 -0.1191E-80
  -1.700 -0.3121E-81 -0.1197E-80
  -1.680 -0.3116E-81 -0.1204E-80
  -1.660 -0.3110E-81 -0.1210E-80
  -1.640 -0.3105E-81 -0.1216E-80
  -1.620 -0.3099E-81 -0.1222E-80
  -1.600 -0.3094E-81 -0.1228E-80
  -1.580 -0.3088E-81 -0.1235E-80
  -1.560 -0.3083E-81 -0.1241E-80
  -1.540 -0.3077E-81 -0.1247E-80
  -1.520 -0.3072E-81 -0.1253E-80
  -1.500 -0.3066E-81 -0.1259E-80
  -1.480 -0.3061E-81 -0.1265E-80
  -1.460 -0.3055E-81 -0.1271E-80
  -1.440 -0.3050E-81 -0.1278E-80
  -1.420 -0.3045E-81 -0.1284E-80
  -1.400 -0.3039E-81 -0.1290E-80
  -1.380 -0.3034E-81 -0.1296E-80
  -1.360 -0.3028E-81 -0.1302E-80
  -1.340 -0.3023E-81 -0.1308E-80
  -1.320 -0.3017E-81 -0.1314E-80
  -1.300 -0.3012E-81 -0.1320E-80
  -1.280 -0.3007E-81 -0.1326E-80
  -1.260 -0.3001E-81 -0.1332E-80
  -1.240 -0.2996E-81 -0.1338E-80
  -1.220 -0.2990E-81 -0.1344E-80
  -1.200 -0.2985E-81 -0.1350E-80
  -1.180 -0.2980E-81 -0.1356E-80
  -1.160 -0.2974E-81 -0.1362E-80
  -1.140 -0.2969E-81 -0.1368E-80
  -1.120 -0.2963E-81 -0.1374E-80
  -1.100 -0.2958E-81 -0.1380E-80
  -1.080 -0.2953E-81 -0.1386E-80
  -1.060 -0.2947E-81 -0.1391E-80
  -1.040 -0.2942E-81 -0.1397E-80
  -1.020 -0.2937E-81 -0.1403E-80
  -1.000 -0.2931E-81 -0.1409E-80
  -0.980 -0.2926E-81 -0.1415E-80
  -0.960 -0.2921E-81 -0.1421E-80
  -0.940 -0.2915E-81 -0.1427E-80
  -0.920 -0.2910E-81 -0.1432E-80
  -0.900 -0.2905E-81 -0.1438E-80
  -0.880 -0.2900E-81 -0.1444E-80
  -0.860 -0.2894E-81 -0.1450E-80
  -0.840 -0.2889E-81 -0.1456E-80
  -0.820 -0.2884E-81 -0.1461E-80
  -0.800 -0.2879E-81 -0.1467E-80
  -0.780 -0.2873E-81 -0.1473E-80
  -0.760 -0.2868E-81 -0.1479E-80
  -0.740 -0.2863E-81 -0.1484E-80
  -0.720 -0.2858E-81 -0.1490E-80
  -0.700 -0.2852E-81 -0.1496E-80
  -0.680 -0.2847E-81 -0.1501E-80
  -0.660 -0.2842E-81 -0.1507E-80
  -0.640 -0.2837E-81 -0.1513E-80
  -0.620 -0.2831E-81 -0.1518E-80
  -0.600 -0.2826E-81 -0.1524E-80
  -0.580 -0.2821E-81 -0.1530E-80
  -0.560 -0.2816E-81 -0.1535E-80
  -0.540 -0.2811E-81 -0.1541E-80
  -0.520 -0.2805E-81 -0.1547E-80
  -0.500 -0.2800E-81 -0.1552E-80
  -0.480 -0.2795E-81 -0.1558E-80
  -0.460 -0.2790E-81 -0.1563E-80
  -0.440 -0.2785E-81 -0.1569E-80
  -0.420 -0.2780E-81 -0.1574E-80
  -0.400 -0.2775E-81 -0.1580E-80
  -0.380 -0.2769E-81 -0.1586E-80
  -0.360 -0.2764E-81 -0.1591E-80
  -0.340 -0.2759E-81 -0.1597E-80
  -0.320 -0.2754E-81 -0.1602E-80
  -0.300 -0.2749E-81 -0.1608E-80
  -0.280 -0.2744E-81 -0.1613E-80
  -0.260 -0.2739E-81 -0.1619E-80
  -0.240 -0.2734E-81 -0.1624E-80
  -0.220 -0.2729E-81 -0.1630E-80
  -0.200 -0.2723E-81 -0.1635E-80
  -0.180 -0.2718E-81 -0.1640E-80
  -0.160 -0.2713E-81 -0.1646E-80
  -0.140 -0.2708E-81 -0.1651E-80
  -0.120 -0.2703E-81 -0.1657E-80
  -0.100 -0.2698E-81 -0.1662E-80
  -0.080 -0.2693E-81 -0.1667E-80
  -0.060 -0.2688E-81 -0.1673E-80
  -0.040 -0.2683E-81 -0.1678E-80
  -0.020 -0.2678E-81 -0.1684E-80
   0.000 -0.2673E-81 -0.1689E-80
   0.020 -0.2668E-81 -0.1694E-80
   0.040 -0.2663E-81 -0.1700E-80
   0.060 -0.2658E-81 -0.1705E-80
   0.080 -0.2653E-81 -0.1710E-80
   0.100 -0.2648E-81 -0.1715E-80
   0.120 -0.2643E-81 -0.1721E-80
   0.140 -0.2638E-81 -0.1726E-80
   0.160 -0.2633E-81 -0.1731E-80
   0.180 -0.2628E-81 -0.1737E-80
   0.200 -0.2623E-81 -0.1742E-80
   0.220 -0.2618E-81 -0.1747E-80
   0.240 -0.2613E-81 -0.1752E-80
   0.260 -0.2608E-81 -0.1757E-80
   0.280 -0.2604E-81 -0.1763E-80
   0.300 -0.2599E-81 -0.1768E-80
   0.320 -0.2594E-81 -0.1773E-80
   0.340 -0.2589E-81 -0.1778E-80
   0.360 -0.2584E-81 -0.1783E-80
   0.380 -0.2579E-81 -0.1789E-80
   0.400 -0.2574E-81 -0.1794E-80
   0.420 -0.2569E-81 -0.1799E-80
   0.440 -0.2564E-81 -0.1804E-80
   0.460 -0.2559E-81 -0.1809E-80
   0.480 -0.2555E-81 -0.1814E-80
   0.500 -0.2550E-81 -0.1819E-80
   0.520 -0.2545E-81 -0.1824E-80
   0.540 -0.2540E-81 -0.1829E-80
   0.560 -0.2535E-81 -0.1835E-80
   0.580 -0.2530E-81 -0.1840E-80
   0.600 -0.2525E-81 -0.1845E-80
   0.620 -0.2521E-81 -0.1850E-80
   0.640 -0.2516E-81 -0.1855E-80
   0.660 -0.2511E-81 -0.1860E-80
   0.680 -0.2506E-81 -0.1865E-80
   0.700 -0.2501E-81 -0.1870E-80
   0.720 -0.2497E-81 -0.1875E-80
   0.740 -0.2492E-81 -0.1880E-80
   0.760 -0.2487E-81 -0.1885E-80
   0.780 -0.2482E-81 -0.1890E-80
   0.800 -0.2478E-81 -0.1895E-80
   0.820 -0.2473E-81 -0.1900E-80
   0.840 -0.2468E-81 -0.1905E-80
   0.860 -0.2463E-81 -0.1909E-80
   0.880 -0.2459E-81 -0.1914E-80
   0.900 -0.2454E-81 -0.1919E-80
   0.920 -0.2449E-81 -0.1924E-80
   0.940 -0.2444E-81 -0.1929E-80
   0.960 -0.2440E-81 -0.1934E-80
   0.980 -0.2435E-81 -0.1939E-80
   1.000 -0.2430E-81 -0.1944E-80
   1.020 -0.2426E-81 -0.1949E-80
   1.040 -0.2421E-81 -0.1953E-80
   1.060 -0.2416E-81 -0.1958E-80
   1.080 -0.2411E-81 -0.1963E-80
   1.100 -0.2407E-81 -0.1968E-80
   1.120 -0.2402E-81 -0.1973E-80
   1.140 -0.2397E-81 -0.1977E-80
   1.160 -0.2393E-81 -0.1982E-80
   1.180 -0.2388E-81 -0.1987E-80
   1.200 -0.2384E-81 -0.1992E-80
   1.220 -0.2379E-81 -0.1997E-80
   1.240 -0.2374E-81 -0.2001E-80
   1.260 -0.2370E-81 -0.2006E-80
   1.280 -0.2365E-81 -0.2011E-80
   1.300 -0.2360E-81 -0.2015E-80
   1.320 -0.2356E-81 -0.2020E-80
   1.340 -0.2351E-81 -0.2025E-80
   1.360 -0.2347E-81 -0.2030E-80
   1.380 -0.2345E-81 -0.2034E-80
   1.400 -0.2360E-81 -0.2039E-80
   1.420 -0.2504E-81 -0.2044E-80
   1.440 -0.3615E-81 -0.2051E-80
   1.460 -0.1188E-80 -0.2075E-80
   1.480 -0.7246E-80 -0.2220E-80
   1.500 -0.5118E-79 -0.3243E-80
   1.520 -0.3663E-78 -0.1057E-79
   1.540 -0.2602E-77 -0.6260E-79
   1.560 -0.1829E-76 -0.4284E-78
   1.580 -0.1272E-75 -0.2972E-77
   1.600 -0.8749E-75 -0.2047E-76
   1.620 -0.5954E-74 -0.1395E-75
   1.640 -0.4008E-73 -0.9411E-75
   1.660 -0.2668E-72 -0.6278E-74
   1.680 -0.1758E-71 -0.4143E-73
   1.700 -0.1145E-70 -0.2704E-72
   1.720 -0.7380E-70 -0.1746E-71
   1.740 -0.4705E-69 -0.1116E-70
   1.760 -0.2967E-68 -0.7049E-70
   1.780 -0.1851E-67 -0.4406E-69
   1.800 -0.1142E-66 -0.2725E-68
   1.820 -0.6970E-66 -0.1667E-67
   1.840 -0.4208E-65 -0.1008E-66
   1.860 -0.2513E-64 -0.6035E-66
   1.880 -0.1485E-63 -0.3573E-65
   1.900 -0.8677E-63 -0.2093E-64
   1.920 -0.5016E-62 -0.1212E-63
   1.940 -0.2868E-61 -0.6949E-63
   1.960 -0.1622E-60 -0.3939E-62
   1.980 -0.9076E-60 -0.2209E-61
   2.000 -0.5023E-59 -0.1226E-60
   2.020 -0.2750E-58 -0.6725E-60
   2.040 -0.1489E-57 -0.3651E-59
   2.060 -0.7976E-57 -0.1960E-58
   2.080 -0.4226E-56 -0.1041E-57
   2.100 -0.2215E-55 -0.5471E-57
   2.120 -0.1148E-54 -0.2844E-56
   2.140 -0.5889E-54 -0.1462E-55
   2.160 -0.2987E-53 -0.7436E-55
   2.180 -0.1499E-52 -0.3741E-54
   2.200 -0.7439E-52 -0.1862E-53
   2.220 -0.3652E-51 -0.9166E-53
   2.240 -0.1774E-50 -0.4464E-52
   2.260 -0.8520E-50 -0.2150E-51
   2.280 -0.4048E-49 -0.1025E-50
   2.300 -0.1903E-48 -0.4830E-50
   2.320 -0.8845E-48 -0.2252E-49
   2.340 -0.4068E-47 -0.1039E-48
   2.360 -0.1850E-46 -0.4739E-48
   2.380 -0.8325E-46 -0.2139E-47
   2.400 -0.3705E-45 -0.9549E-47
   2.420 -0.1631E-44 -0.4217E-46
   2.440 -0.7102E-44 -0.1842E-45
   2.460 -0.3059E-43 -0.7960E-45
   2.480 -0.1303E-42 -0.3402E-44
   2.500 -0.5492E-42 -0.1439E-43
   2.520 -0.2289E-41 -0.6017E-43
   2.540 -0.9439E-41 -0.2489E-42
   2.560 -0.3849E-40 -0.1019E-41
   2.580 -0.1553E-39 -0.4125E-41
   2.600 -0.6196E-39 -0.1652E-40
   2.620 -0.2445E-38 -0.6543E-40
   2.640 -0.9547E-38 -0.2564E-39
   2.660 -0.3686E-37 -0.9936E-39
   2.680 -0.1408E-36 -0.3809E-38
   2.700 -0.5319E-36 -0.1445E-37
   2.720 -0.1988E-35 -0.5420E-37
   2.740 -0.7346E-35 -0.2011E-36
   2.760 -0.2686E-34 -0.7382E-36
   2.780 -0.9711E-34 -0.2680E-35
   2.800 -0.3473E-33 -0.9627E-35
   2.820 -0.1229E-32 -0.3420E-34
   2.840 -0.4299E-32 -0.1202E-33
   2.860 -0.1488E-31 -0.4178E-33
   2.880 -0.5094E-31 -0.1437E-32
   2.900 -0.1725E-30 -0.4886E-32
   2.920 -0.5776E-30 -0.1644E-31
   2.940 -0.1913E-29 -0.5470E-31
   2.960 -0.6268E-29 -0.1801E-30
   2.980 -0.2031E-28 -0.5863E-30
   3.000 -0.6510E-28 -0.1888E-29
   3.020 -0.2064E-27 -0.6016E-29
   3.040 -0.6471E-27 -0.1896E-28
   3.060 -0.2007E-26 -0.5909E-28
   3.080 -0.6155E-26 -0.1822E-27
   3.100 -0.1867E-25 -0.5557E-27
   3.120 -0.5603E-25 -0.1676E-26
   3.140 -0.1663E-24 -0.5002E-26
   3.160 -0.4881E-24 -0.1476E-25
   3.180 -0.1417E-23 -0.4310E-25
   3.200 -0.4068E-23 -0.1245E-24
   3.220 -0.1155E-22 -0.3555E-24
   3.240 -0.3244E-22 -0.1004E-23
   3.260 -0.9012E-22 -0.2807E-23
   3.280 -0.2476E-21 -0.7759E-23
   3.300 -0.6727E-21 -0.2121E-22
   3.320 -0.1808E-20 -0.5737E-22
   3.340 -0.4804E-20 -0.1534E-21
   3.360 -0.1263E-19 -0.4060E-21
   3.380 -0.3282E-19 -0.1062E-20
   3.400 -0.8438E-19 -0.2750E-20
   3.420 -0.2145E-18 -0.7041E-20
   3.440 -0.5394E-18 -0.1783E-19
   3.460 -0.1341E-17 -0.4466E-19
   3.480 -0.3299E-17 -0.1106E-18
   3.500 -0.8023E-17 -0.2711E-18
   3.520 -0.1930E-16 -0.6570E-18
   3.540 -0.4589E-16 -0.1575E-17
   3.560 -0.1079E-15 -0.3734E-17
   3.580 -0.2511E-15 -0.8756E-17
   3.600 -0.5776E-15 -0.2031E-16
   3.620 -0.1314E-14 -0.4658E-16
   3.640 -0.2955E-14 -0.1057E-15
   3.660 -0.6574E-14 -0.2372E-15
   3.680 -0.1446E-13 -0.5264E-15
   3.700 -0.3145E-13 -0.1155E-14
   3.720 -0.6764E-13 -0.2508E-14
   3.740 -0.1439E-12 -0.5385E-14
   3.760 -0.3025E-12 -0.1144E-13
   3.780 -0.6290E-12 -0.2402E-13
   3.800 -0.1293E-11 -0.4988E-13
   3.820 -0.2629E-11 -0.1025E-12
   3.840 -0.5284E-11 -0.2082E-12
   3.860 -0.1050E-10 -0.4182E-12
   3.880 -0.2063E-10 -0.8309E-12
   3.900 -0.4009E-10 -0.1633E-11
   3.920 -0.7699E-10 -0.3172E-11
   3.940 -0.1462E-09 -0.6096E-11
   3.960 -0.2744E-09 -0.1158E-10
   3.980 -0.5093E-09 -0.2177E-10
   4.000 -0.9342E-09 -0.4045E-10
   4.020 -0.1694E-08 -0.7434E-10
   4.040 -0.3037E-08 -0.1351E-09
   4.060 -0.5382E-08 -0.2427E-09
   4.080 -0.9426E-08 -0.4312E-09
   4.100 -0.1632E-07 -0.7576E-09
   4.120 -0.2792E-07 -0.1316E-08
   4.140 -0.4721E-07 -0.2260E-08
   4.160 -0.7888E-07 -0.3838E-08
   4.180 -0.1303E-06 -0.6443E-08
   4.200 -0.2126E-06 -0.1069E-07
   4.220 -0.3427E-06 -0.1755E-07
   4.240 -0.5460E-06 -0.2847E-07
   4.260 -0.8592E-06 -0.4565E-07
   4.280 -0.1336E-05 -0.7237E-07
   4.300 -0.2051E-05 -0.1134E-06
   4.320 -0.3111E-05 -0.1756E-06
   4.340 -0.4660E-05 -0.2688E-06
   4.360 -0.6892E-05 -0.4067E-06
   4.380 -0.1006E-04 -0.6080E-06
   4.400 -0.1451E-04 -0.8981E-06
   4.420 -0.2064E-04 -0.1311E-05
   4.440 -0.2897E-04 -0.1890E-05
   4.460 -0.4013E-04 -0.2693E-05
   4.480 -0.5481E-04 -0.3789E-05
   4.500 -0.7381E-04 -0.5265E-05
   4.520 -0.9797E-04 -0.7225E-05
   4.540 -0.1281E-03 -0.9787E-05
   4.560 -0.1650E-03 -0.1309E-04
   4.580 -0.2091E-03 -0.1727E-04
   4.600 -0.2605E-03 -0.2248E-04
   4.620 -0.3189E-03 -0.2886E-04
   4.640 -0.3831E-03 -0.3652E-04
   4.660 -0.4509E-03 -0.4554E-04
   4.680 -0.5189E-03 -0.5591E-04
   4.700 -0.5823E-03 -0.6756E-04
   4.720 -0.6347E-03 -0.8025E-04
   4.740 -0.6680E-03 -0.9361E-04
   4.760 -0.6727E-03 -0.1071E-03
   4.780 -0.6378E-03 -0.1198E-03
   4.800 -0.5515E-03 -0.1309E-03
   4.820 -0.4017E-03 -0.1389E-03
   4.840 -0.1769E-03 -0.1424E-03
   4.860  0.1328E-03 -0.1398E-03
   4.880  0.5345E-03 -0.1291E-03
   4.900  0.1031E-02 -0.1085E-03
   4.920  0.1621E-02 -0.7604E-04
   4.940  0.2295E-02 -0.3015E-04
   4.960  0.3037E-02  0.3060E-04
   4.980  0.3826E-02  0.1071E-03
   5.000  0.4631E-02  0.1997E-03
   5.020  0.5416E-02  0.3080E-03
   5.040  0.6140E-02  0.4309E-03
   5.060  0.6762E-02  0.5661E-03
   5.080  0.7239E-02  0.7109E-03
   5.100  0.7536E-02  0.8616E-03
   5.120  0.7624E-02  0.1014E-02
   5.140  0.7488E-02  0.1164E-02
   5.160  0.7132E-02  0.1306E-02
   5.180  0.6580E-02  0.1438E-02
   5.200  0.5878E-02  0.1556E-02
   5.220  0.5098E-02  0.1658E-02
   5.240  0.4340E-02  0.1744E-02
   5.260  0.3724E-02  0.1819E-02
   5.280  0.3394E-02  0.1887E-02
   5.300  0.3506E-02  0.1957E-02
   5.320  0.4226E-02  0.2041E-02
   5.340  0.5718E-02  0.2156E-02
   5.360  0.8136E-02  0.2318E-02
   5.380  0.1161E-01  0.2551E-02
   5.400  0.1625E-01  0.2876E-02
   5.420  0.2210E-01  0.3318E-02
   5.440  0.2918E-01  0.3901E-02
   5.460  0.3743E-01  0.4650E-02
   5.480  0.4676E-01  0.5585E-02
   5.500  0.5699E-01  0.6725E-02
   5.520  0.6789E-01  0.8082E-02
   5.540  0.7921E-01  0.9667E-02
   5.560  0.9061E-01  0.1148E-01
   5.580  0.1018E+00  0.1351E-01
   5.600  0.1123E+00  0.1576E-01
   5.620  0.1219E+00  0.1820E-01
   5.640  0.1302E+00  0.2080E-01
   5.660  0.1370E+00  0.2354E-01
   5.680  0.1419E+00  0.2638E-01
   5.700  0.1448E+00  0.2928E-01
   5.720  0.1456E+00  0.3219E-01
   5.740  0.1442E+00  0.3507E-01
   5.760  0.1407E+00  0.3789E-01
   5.780  0.1352E+00  0.4059E-01
   5.800  0.1278E+00  0.4315E-01
   5.820  0.1188E+00  0.4552E-01
   5.840  0.1085E+00  0.4769E-01
   5.860  0.9716E-01  0.4964E-01
   5.880  0.8516E-01  0.5134E-01
   5.900  0.7286E-01  0.5280E-01
   5.920  0.6064E-01  0.5401E-01
   5.940  0.4885E-01  0.5499E-01
   5.960  0.3783E-01  0.5574E-01
   5.980  0.2790E-01  0.5630E-01
   6.000  0.1932E-01  0.5669E-01
   6.020  0.1232E-01  0.5693E-01
   6.040  0.7071E-02  0.5708E-01
   6.060  0.3681E-02  0.5715E-01
   6.080  0.2206E-02  0.5719E-01
   6.100  0.2640E-02  0.5725E-01
   6.120  0.4921E-02  0.5734E-01
   6.140  0.8941E-02  0.5752E-01
   6.160  0.1455E-01  0.5781E-01
   6.180  0.2159E-01  0.5825E-01
   6.200  0.2989E-01  0.5884E-01
   6.220  0.3929E-01  0.5963E-01
   6.240  0.4968E-01  0.6062E-01
   6.260  0.6101E-01  0.6184E-01
   6.280  0.7332E-01  0.6331E-01
   6.300  0.8672E-01  0.6504E-01
   6.320  0.1014E+00  0.6707E-01
   6.340  0.1178E+00  0.6943E-01
   6.360  0.1363E+00  0.7216E-01
   6.380  0.1573E+00  0.7530E-01
   6.400  0.1815E+00  0.7893E-01
   6.420  0.2094E+00  0.8312E-01
   6.440  0.2417E+00  0.8795E-01
   6.460  0.2788E+00  0.9353E-01
   6.480  0.3213E+00  0.9996E-01
   6.500  0.3696E+00  0.1073E+00
   6.520  0.4239E+00  0.1158E+00
   6.540  0.4845E+00  0.1255E+00
   6.560  0.5515E+00  0.1365E+00
   6.580  0.6249E+00  0.1490E+00
   6.600  0.7045E+00  0.1631E+00
   6.620  0.7901E+00  0.1789E+00
   6.640  0.8816E+00  0.1966E+00
   6.660  0.9784E+00  0.2161E+00
   6.680  0.1080E+01  0.2377E+00
   6.700  0.1187E+01  0.2615E+00
   6.720  0.1297E+01  0.2874E+00
   6.740  0.1411E+01  0.3156E+00
   6.760  0.1527E+01  0.3462E+00
   6.780  0.1645E+01  0.3791E+00
   6.800  0.1763E+01  0.4144E+00
   6.820  0.1881E+01  0.4520E+00
   6.840  0.1998E+01  0.4919E+00
   6.860  0.2111E+01  0.5342E+00
   6.880  0.2221E+01  0.5786E+00
   6.900  0.2326E+01  0.6251E+00
   6.920  0.2425E+01  0.6736E+00
   6.940  0.2518E+01  0.7240E+00
   6.960  0.2605E+01  0.7761E+00
   6.980  0.2685E+01  0.8298E+00
   7.000  0.2759E+01  0.8849E+00
   7.020  0.2827E+01  0.9415E+00
   7.040  0.2889E+01  0.9993E+00
   7.060  0.2946E+01  0.1058E+01
