#  E (eV)   dos(E)     Int dos(E) EFermi =   13.108 eV
  -5.000 -0.4118E-81 -0.8236E-83
  -4.980 -0.4112E-81 -0.1646E-82
  -4.960 -0.4105E-81 -0.2467E-82
  -4.940 -0.4099E-81 -0.3287E-82
  -4.920 -0.4092E-81 -0.4105E-82
  -4.900 -0.4085E-81 -0.4922E-82
  -4.880 -0.4079E-81 -0.5738E-82
  -4.860 -0.4072E-81 -0.6552E-82
  -4.840 -0.4066E-81 -0.7366E-82
  -4.820 -0.4059E-81 -0.8177E-82
  -4.800 -0.4053E-81 -0.8988E-82
  -4.780 -0.4046E-81 -0.9797E-82
  -4.760 -0.4040E-81 -0.1061E-81
  -4.740 -0.4033E-81 -0.1141E-81
  -4.720 -0.4027E-81 -0.1222E-81
  -4.700 -0.4020E-81 -0.1302E-81
  -4.680 -0.4014E-81 -0.1382E-81
  -4.660 -0.4008E-81 -0.1463E-81
  -4.640 -0.4001E-81 -0.1543E-81
  -4.620 -0.3995E-81 -0.1622E-81
  -4.600 -0.3988E-81 -0.1702E-81
  -4.580 -0.3982E-81 -0.1782E-81
  -4.560 -0.3975E-81 -0.1861E-81
  -4.540 -0.3969E-81 -0.1941E-81
  -4.520 -0.3963E-81 -0.2020E-81
  -4.500 -0.3956E-81 -0.2099E-81
  -4.480 -0.3950E-81 -0.2178E-81
  -4.460 -0.3943E-81 -0.2257E-81
  -4.440 -0.3937E-81 -0.2336E-81
  -4.420 -0.3931E-81 -0.2414E-81
  -4.400 -0.3924E-81 -0.2493E-81
  -4.380 -0.3918E-81 -0.2571E-81
  -4.360 -0.3911E-81 -0.2649E-81
  -4.340 -0.3905E-81 -0.2728E-81
  -4.320 -0.3899E-81 -0.2805E-81
  -4.300 -0.3892E-81 -0.2883E-81
  -4.280 -0.3886E-81 -0.2961E-81
  -4.260 -0.3880E-81 -0.3039E-81
  -4.240 -0.3873E-81 -0.3116E-81
  -4.220 -0.3867E-81 -0.3193E-81
  -4.200 -0.3861E-81 -0.3271E-81
  -4.180 -0.3854E-81 -0.3348E-81
  -4.160 -0.3848E-81 -0.3425E-81
  -4.140 -0.3842E-81 -0.3502E-81
  -4.120 -0.3836E-81 -0.3578E-81
  -4.100 -0.3829E-81 -0.3655E-81
  -4.080 -0.3823E-81 -0.3731E-81
  -4.060 -0.3817E-81 -0.3808E-81
  -4.040 -0.3810E-81 -0.3884E-81
  -4.020 -0.3804E-81 -0.3960E-81
  -4.000 -0.3798E-81 -0.4036E-81
  -3.980 -0.3792E-81 -0.4112E-81
  -3.960 -0.3785E-81 -0.4187E-81
  -3.940 -0.3779E-81 -0.4263E-81
  -3.920 -0.3773E-81 -0.4338E-81
  -3.900 -0.3767E-81 -0.4414E-81
  -3.880 -0.3761E-81 -0.4489E-81
  -3.860 -0.3754E-81 -0.4564E-81
  -3.840 -0.3748E-81 -0.4639E-81
  -3.820 -0.3742E-81 -0.4714E-81
  -3.800 -0.3736E-81 -0.4789E-81
  -3.780 -0.3730E-81 -0.4863E-81
  -3.760 -0.3723E-81 -0.4938E-81
  -3.740 -0.3717E-81 -0.5012E-81
  -3.720 -0.3711E-81 -0.5086E-81
  -3.700 -0.3705E-81 -0.5160E-81
  -3.680 -0.3699E-81 -0.5234E-81
  -3.660 -0.3693E-81 -0.5308E-81
  -3.640 -0.3686E-81 -0.5382E-81
  -3.620 -0.3680E-81 -0.5456E-81
  -3.600 -0.3674E-81 -0.5529E-81
  -3.580 -0.3668E-81 -0.5602E-81
  -3.560 -0.3662E-81 -0.5676E-81
  -3.540 -0.3656E-81 -0.5749E-81
  -3.520 -0.3650E-81 -0.5822E-81
  -3.500 -0.3644E-81 -0.5895E-81
  -3.480 -0.3637E-81 -0.5967E-81
  -3.460 -0.3631E-81 -0.6040E-81
  -3.440 -0.3625E-81 -0.6112E-81
  -3.420 -0.3619E-81 -0.6185E-81
  -3.400 -0.3613E-81 -0.6257E-81
  -3.380 -0.3607E-81 -0.6329E-81
  -3.360 -0.3601E-81 -0.6401E-81
  -3.340 -0.3595E-81 -0.6473E-81
  -3.320 -0.3589E-81 -0.6545E-81
  -3.300 -0.3583E-81 -0.6617E-81
  -3.280 -0.3577E-81 -0.6688E-81
  -3.260 -0.3571E-81 -0.6760E-81
  -3.240 -0.3565E-81 -0.6831E-81
  -3.220 -0.3559E-81 -0.6902E-81
  -3.200 -0.3553E-81 -0.6973E-81
  -3.180 -0.3547E-81 -0.7044E-81
  -3.160 -0.3541E-81 -0.7115E-81
  -3.140 -0.3535E-81 -0.7186E-81
  -3.120 -0.3529E-81 -0.7256E-81
  -3.100 -0.3523E-81 -0.7327E-81
  -3.080 -0.3517E-81 -0.7397E-81
  -3.060 -0.3511E-81 -0.7467E-81
  -3.040 -0.3505E-81 -0.7537E-81
  -3.020 -0.3499E-81 -0.7607E-81
  -3.000 -0.3493E-81 -0.7677E-81
  -2.980 -0.3487E-81 -0.7747E-81
  -2.960 -0.3481E-81 -0.7816E-81
  -2.940 -0.3475E-81 -0.7886E-81
  -2.920 -0.3469E-81 -0.7955E-81
  -2.900 -0.3464E-81 -0.8025E-81
  -2.880 -0.3458E-81 -0.8094E-81
  -2.860 -0.3452E-81 -0.8163E-81
  -2.840 -0.3446E-81 -0.8232E-81
  -2.820 -0.3440E-81 -0.8301E-81
  -2.800 -0.3434E-81 -0.8369E-81
  -2.780 -0.3428E-81 -0.8438E-81
  -2.760 -0.3422E-81 -0.8506E-81
  -2.740 -0.3416E-81 -0.8575E-81
  -2.720 -0.3411E-81 -0.8643E-81
  -2.700 -0.3405E-81 -0.8711E-81
  -2.680 -0.3399E-81 -0.8779E-81
  -2.660 -0.3393E-81 -0.8847E-81
  -2.640 -0.3387E-81 -0.8914E-81
  -2.620 -0.3381E-81 -0.8982E-81
  -2.600 -0.3376E-81 -0.9050E-81
  -2.580 -0.3370E-81 -0.9117E-81
  -2.560 -0.3364E-81 -0.9184E-81
  -2.540 -0.3358E-81 -0.9251E-81
  -2.520 -0.3352E-81 -0.9318E-81
  -2.500 -0.3347E-81 -0.9385E-81
  -2.480 -0.3341E-81 -0.9452E-81
  -2.460 -0.3335E-81 -0.9519E-81
  -2.440 -0.3329E-81 -0.9585E-81
  -2.420 -0.3323E-81 -0.9652E-81
  -2.400 -0.3318E-81 -0.9718E-81
  -2.380 -0.3312E-81 -0.9785E-81
  -2.360 -0.3306E-81 -0.9851E-81
  -2.340 -0.3300E-81 -0.9917E-81
  -2.320 -0.3295E-81 -0.9983E-81
  -2.300 -0.3289E-81 -0.1005E-80
  -2.280 -0.3283E-81 -0.1011E-80
  -2.260 -0.3278E-81 -0.1018E-80
  -2.240 -0.3272E-81 -0.1025E-80
  -2.220 -0.3266E-81 -0.1031E-80
  -2.200 -0.3260E-81 -0.1038E-80
  -2.180 -0.3255E-81 -0.1044E-80
  -2.160 -0.3249E-81 -0.1051E-80
  -2.140 -0.3243E-81 -0.1057E-80
  -2.120 -0.3238E-81 -0.1064E-80
  -2.100 -0.3232E-81 -0.1070E-80
  -2.080 -0.3226E-81 -0.1076E-80
  -2.060 -0.3221E-81 -0.1083E-80
  -2.040 -0.3215E-81 -0.1089E-80
  -2.020 -0.3210E-81 -0.1096E-80
  -2.000 -0.3204E-81 -0.1102E-80
  -1.980 -0.3198E-81 -0.1109E-80
  -1.960 -0.3193E-81 -0.1115E-80
  -1.940 -0.3187E-81 -0.1121E-80
  -1.920 -0.3181E-81 -0.1128E-80
  -1.900 -0.3176E-81 -0.1134E-80
  -1.880 -0.3170E-81 -0.1140E-80
  -1.860 -0.3165E-81 -0.1147E-80
  -1.840 -0.3159E-81 -0.1153E-80
  -1.820 -0.3153E-81 -0.1159E-80
  -1.800 -0.3148E-81 -0.1166E-80
  -1.780 -0.3142E-81 -0.1172E-80
  -1.760 -0.3137E-81 -0.1178E-80
  -1.740 -0.3131E-81 -0.1184E-80
  -1.720 -0.3126E-81 -0.1191E-80
  -1.700 -0.3120E-81 -0.1197E-80
  -1.680 -0.3115E-81 -0.1203E-80
  -1.660 -0.3109E-81 -0.1209E-80
  -1.640 -0.3104E-81 -0.1216E-80
  -1.620 -0.3098E-81 -0.1222E-80
  -1.600 -0.3093E-81 -0.1228E-80
  -1.580 -0.3087E-81 -0.1234E-80
  -1.560 -0.3082E-81 -0.1240E-80
  -1.540 -0.3076E-81 -0.1246E-80
  -1.520 -0.3071E-81 -0.1253E-80
  -1.500 -0.3065E-81 -0.1259E-80
  -1.480 -0.3060E-81 -0.1265E-80
  -1.460 -0.3054E-81 -0.1271E-80
  -1.440 -0.3049E-81 -0.1277E-80
  -1.420 -0.3043E-81 -0.1283E-80
  -1.400 -0.3038E-81 -0.1289E-80
  -1.380 -0.3032E-81 -0.1295E-80
  -1.360 -0.3027E-81 -0.1301E-80
  -1.340 -0.3021E-81 -0.1307E-80
  -1.320 -0.3016E-81 -0.1313E-80
  -1.300 -0.3011E-81 -0.1319E-80
  -1.280 -0.3005E-81 -0.1325E-80
  -1.260 -0.3000E-81 -0.1331E-80
  -1.240 -0.2994E-81 -0.1337E-80
  -1.220 -0.2989E-81 -0.1343E-80
  -1.200 -0.2984E-81 -0.1349E-80
  -1.180 -0.2978E-81 -0.1355E-80
  -1.160 -0.2973E-81 -0.1361E-80
  -1.140 -0.2968E-81 -0.1367E-80
  -1.120 -0.2962E-81 -0.1373E-80
  -1.100 -0.2957E-81 -0.1379E-80
  -1.080 -0.2951E-81 -0.1385E-80
  -1.060 -0.2946E-81 -0.1391E-80
  -1.040 -0.2941E-81 -0.1397E-80
  -1.020 -0.2935E-81 -0.1403E-80
  -1.000 -0.2930E-81 -0.1408E-80
  -0.980 -0.2925E-81 -0.1414E-80
  -0.960 -0.2919E-81 -0.1420E-80
  -0.940 -0.2914E-81 -0.1426E-80
  -0.920 -0.2909E-81 -0.1432E-80
  -0.900 -0.2904E-81 -0.1438E-80
  -0.880 -0.2898E-81 -0.1443E-80
  -0.860 -0.2893E-81 -0.1449E-80
  -0.840 -0.2888E-81 -0.1455E-80
  -0.820 -0.2882E-81 -0.1461E-80
  -0.800 -0.2877E-81 -0.1466E-80
  -0.780 -0.2872E-81 -0.1472E-80
  -0.760 -0.2867E-81 -0.1478E-80
  -0.740 -0.2861E-81 -0.1484E-80
  -0.720 -0.2856E-81 -0.1489E-80
  -0.700 -0.2851E-81 -0.1495E-80
  -0.680 -0.2846E-81 -0.1501E-80
  -0.660 -0.2841E-81 -0.1506E-80
  -0.640 -0.2835E-81 -0.1512E-80
  -0.620 -0.2830E-81 -0.1518E-80
  -0.600 -0.2825E-81 -0.1523E-80
  -0.580 -0.2820E-81 -0.1529E-80
  -0.560 -0.2815E-81 -0.1535E-80
  -0.540 -0.2809E-81 -0.1540E-80
  -0.520 -0.2804E-81 -0.1546E-80
  -0.500 -0.2799E-81 -0.1552E-80
  -0.480 -0.2794E-81 -0.1557E-80
  -0.460 -0.2789E-81 -0.1563E-80
  -0.440 -0.2784E-81 -0.1568E-80
  -0.420 -0.2778E-81 -0.1574E-80
  -0.400 -0.2773E-81 -0.1579E-80
  -0.380 -0.2768E-81 -0.1585E-80
  -0.360 -0.2763E-81 -0.1590E-80
  -0.340 -0.2758E-81 -0.1596E-80
  -0.320 -0.2753E-81 -0.1601E-80
  -0.300 -0.2748E-81 -0.1607E-80
  -0.280 -0.2743E-81 -0.1612E-80
  -0.260 -0.2738E-81 -0.1618E-80
  -0.240 -0.2732E-81 -0.1623E-80
  -0.220 -0.2727E-81 -0.1629E-80
  -0.200 -0.2722E-81 -0.1634E-80
  -0.180 -0.2717E-81 -0.1640E-80
  -0.160 -0.2712E-81 -0.1645E-80
  -0.140 -0.2707E-81 -0.1651E-80
  -0.120 -0.2702E-81 -0.1656E-80
  -0.100 -0.2697E-81 -0.1661E-80
  -0.080 -0.2692E-81 -0.1667E-80
  -0.060 -0.2687E-81 -0.1672E-80
  -0.040 -0.2682E-81 -0.1677E-80
  -0.020 -0.2677E-81 -0.1683E-80
   0.000 -0.2672E-81 -0.1688E-80
   0.020 -0.2667E-81 -0.1693E-80
   0.040 -0.2662E-81 -0.1699E-80
   0.060 -0.2657E-81 -0.1704E-80
   0.080 -0.2652E-81 -0.1709E-80
   0.100 -0.2647E-81 -0.1715E-80
   0.120 -0.2642E-81 -0.1720E-80
   0.140 -0.2637E-81 -0.1725E-80
   0.160 -0.2632E-81 -0.1731E-80
   0.180 -0.2627E-81 -0.1736E-80
   0.200 -0.2622E-81 -0.1741E-80
   0.220 -0.2617E-81 -0.1746E-80
   0.240 -0.2612E-81 -0.1751E-80
   0.260 -0.2607E-81 -0.1757E-80
   0.280 -0.2602E-81 -0.1762E-80
   0.300 -0.2597E-81 -0.1767E-80
   0.320 -0.2592E-81 -0.1772E-80
   0.340 -0.2588E-81 -0.1777E-80
   0.360 -0.2583E-81 -0.1783E-80
   0.380 -0.2578E-81 -0.1788E-80
   0.400 -0.2573E-81 -0.1793E-80
   0.420 -0.2568E-81 -0.1798E-80
   0.440 -0.2563E-81 -0.1803E-80
   0.460 -0.2558E-81 -0.1808E-80
   0.480 -0.2553E-81 -0.1813E-80
   0.500 -0.2549E-81 -0.1819E-80
   0.520 -0.2544E-81 -0.1824E-80
   0.540 -0.2539E-81 -0.1829E-80
   0.560 -0.2534E-81 -0.1834E-80
   0.580 -0.2529E-81 -0.1839E-80
   0.600 -0.2524E-81 -0.1844E-80
   0.620 -0.2520E-81 -0.1849E-80
   0.640 -0.2515E-81 -0.1854E-80
   0.660 -0.2510E-81 -0.1859E-80
   0.680 -0.2505E-81 -0.1864E-80
   0.700 -0.2500E-81 -0.1869E-80
   0.720 -0.2496E-81 -0.1874E-80
   0.740 -0.2491E-81 -0.1879E-80
   0.760 -0.2486E-81 -0.1884E-80
   0.780 -0.2481E-81 -0.1889E-80
   0.800 -0.2476E-81 -0.1894E-80
   0.820 -0.2472E-81 -0.1899E-80
   0.840 -0.2467E-81 -0.1904E-80
   0.860 -0.2462E-81 -0.1909E-80
   0.880 -0.2457E-81 -0.1914E-80
   0.900 -0.2453E-81 -0.1918E-80
   0.920 -0.2448E-81 -0.1923E-80
   0.940 -0.2443E-81 -0.1928E-80
   0.960 -0.2439E-81 -0.1933E-80
   0.980 -0.2434E-81 -0.1938E-80
   1.000 -0.2429E-81 -0.1943E-80
   1.020 -0.2424E-81 -0.1948E-80
   1.040 -0.2420E-81 -0.1953E-80
   1.060 -0.2415E-81 -0.1957E-80
   1.080 -0.2410E-81 -0.1962E-80
   1.100 -0.2406E-81 -0.1967E-80
   1.120 -0.2401E-81 -0.1972E-80
   1.140 -0.2396E-81 -0.1977E-80
   1.160 -0.2392E-81 -0.1981E-80
   1.180 -0.2387E-81 -0.1986E-80
   1.200 -0.2382E-81 -0.1991E-80
   1.220 -0.2378E-81 -0.1996E-80
   1.240 -0.2373E-81 -0.2000E-80
   1.260 -0.2369E-81 -0.2005E-80
   1.280 -0.2364E-81 -0.2010E-80
   1.300 -0.2359E-81 -0.2015E-80
   1.320 -0.2355E-81 -0.2019E-80
   1.340 -0.2350E-81 -0.2024E-80
   1.360 -0.2346E-81 -0.2029E-80
   1.380 -0.2341E-81 -0.2033E-80
   1.400 -0.2337E-81 -0.2038E-80
   1.420 -0.2339E-81 -0.2043E-80
   1.440 -0.2381E-81 -0.2047E-80
   1.460 -0.2721E-81 -0.2053E-80
   1.480 -0.5248E-81 -0.2063E-80
   1.500 -0.2361E-80 -0.2111E-80
   1.520 -0.1554E-79 -0.2421E-80
   1.540 -0.1091E-78 -0.4604E-80
   1.560 -0.7663E-78 -0.1993E-79
   1.580 -0.5332E-77 -0.1266E-78
   1.600 -0.3671E-76 -0.8607E-78
   1.620 -0.2500E-75 -0.5860E-77
   1.640 -0.1684E-74 -0.3954E-76
   1.660 -0.1122E-73 -0.2640E-75
   1.680 -0.7400E-73 -0.1744E-74
   1.700 -0.4826E-72 -0.1140E-73
   1.720 -0.3114E-71 -0.7367E-73
   1.740 -0.1987E-70 -0.4711E-72
   1.760 -0.1255E-69 -0.2980E-71
   1.780 -0.7836E-69 -0.1865E-70
   1.800 -0.4841E-68 -0.1155E-69
   1.820 -0.2959E-67 -0.7072E-69
   1.840 -0.1789E-66 -0.4285E-68
   1.860 -0.1070E-65 -0.2568E-67
   1.880 -0.6330E-65 -0.1523E-66
   1.900 -0.3705E-64 -0.8933E-66
   1.920 -0.2145E-63 -0.5183E-65
   1.940 -0.1229E-62 -0.2975E-64
   1.960 -0.6961E-62 -0.1690E-63
   1.980 -0.3902E-61 -0.9493E-63
   2.000 -0.2163E-60 -0.5276E-62
   2.020 -0.1187E-59 -0.2901E-61
   2.040 -0.6438E-59 -0.1578E-60
   2.060 -0.3456E-58 -0.8489E-60
   2.080 -0.1835E-57 -0.4519E-59
   2.100 -0.9638E-57 -0.2380E-58
   2.120 -0.5008E-56 -0.1240E-57
   2.140 -0.2574E-55 -0.6388E-57
   2.160 -0.1309E-54 -0.3257E-56
   2.180 -0.6585E-54 -0.1643E-55
   2.200 -0.3277E-53 -0.8197E-55
   2.220 -0.1613E-52 -0.4046E-54
   2.240 -0.7857E-52 -0.1976E-53
   2.260 -0.3785E-51 -0.9546E-53
   2.280 -0.1804E-50 -0.4562E-52
   2.300 -0.8505E-50 -0.2157E-51
   2.320 -0.3967E-49 -0.1009E-50
   2.340 -0.1830E-48 -0.4669E-50
   2.360 -0.8354E-48 -0.2138E-49
   2.380 -0.3772E-47 -0.9682E-49
   2.400 -0.1685E-46 -0.4338E-48
   2.420 -0.7445E-46 -0.1923E-47
   2.440 -0.3255E-45 -0.8432E-47
   2.460 -0.1408E-44 -0.3658E-46
   2.480 -0.6021E-44 -0.1570E-45
   2.500 -0.2548E-43 -0.6667E-45
   2.520 -0.1067E-42 -0.2801E-44
   2.540 -0.4419E-42 -0.1164E-43
   2.560 -0.1811E-41 -0.4785E-43
   2.580 -0.7340E-41 -0.1947E-42
   2.600 -0.2943E-40 -0.7833E-42
   2.620 -0.1168E-39 -0.3119E-41
   2.640 -0.4582E-39 -0.1228E-40
   2.660 -0.1779E-38 -0.4787E-40
   2.680 -0.6833E-38 -0.1845E-39
   2.700 -0.2596E-37 -0.7038E-39
   2.720 -0.9760E-37 -0.2656E-38
   2.740 -0.3629E-36 -0.9914E-38
   2.760 -0.1335E-35 -0.3662E-37
   2.780 -0.4859E-35 -0.1338E-36
   2.800 -0.1749E-34 -0.4837E-36
   2.820 -0.6231E-34 -0.1730E-35
   2.840 -0.2196E-33 -0.6122E-35
   2.860 -0.7654E-33 -0.2143E-34
   2.880 -0.2640E-32 -0.7423E-34
   2.900 -0.9006E-32 -0.2543E-33
   2.920 -0.3040E-31 -0.8623E-33
   2.940 -0.1015E-30 -0.2892E-32
   2.960 -0.3353E-30 -0.9598E-32
   2.980 -0.1096E-29 -0.3151E-31
   3.000 -0.3543E-29 -0.1024E-30
   3.020 -0.1133E-28 -0.3290E-30
   3.040 -0.3585E-28 -0.1046E-29
   3.060 -0.1122E-27 -0.3291E-29
   3.080 -0.3476E-27 -0.1024E-28
   3.100 -0.1065E-26 -0.3154E-28
   3.120 -0.3228E-26 -0.9609E-28
   3.140 -0.9678E-26 -0.2896E-27
   3.160 -0.2871E-25 -0.8638E-27
   3.180 -0.8425E-25 -0.2549E-26
   3.200 -0.2446E-24 -0.7441E-26
   3.220 -0.7025E-24 -0.2149E-25
   3.240 -0.1996E-23 -0.6142E-25
   3.260 -0.5612E-23 -0.1737E-24
   3.280 -0.1561E-22 -0.4858E-24
   3.300 -0.4294E-22 -0.1344E-23
   3.320 -0.1169E-21 -0.3682E-23
   3.340 -0.3147E-21 -0.9975E-23
   3.360 -0.8382E-21 -0.2674E-22
   3.380 -0.2209E-20 -0.7091E-22
   3.400 -0.5758E-20 -0.1861E-21
   3.420 -0.1485E-19 -0.4831E-21
   3.440 -0.3789E-19 -0.1241E-20
   3.460 -0.9564E-19 -0.3154E-20
   3.480 -0.2388E-18 -0.7930E-20
   3.500 -0.5899E-18 -0.1973E-19
   3.520 -0.1442E-17 -0.4856E-19
   3.540 -0.3485E-17 -0.1183E-18
   3.560 -0.8334E-17 -0.2849E-18
   3.580 -0.1972E-16 -0.6793E-18
   3.600 -0.4615E-16 -0.1602E-17
   3.620 -0.1068E-15 -0.3739E-17
   3.640 -0.2447E-15 -0.8633E-17
   3.660 -0.5544E-15 -0.1972E-16
   3.680 -0.1243E-14 -0.4457E-16
   3.700 -0.2755E-14 -0.9967E-16
   3.720 -0.6042E-14 -0.2205E-15
   3.740 -0.1311E-13 -0.4826E-15
   3.760 -0.2813E-13 -0.1045E-14
   3.780 -0.5972E-13 -0.2240E-14
   3.800 -0.1254E-12 -0.4748E-14
   3.820 -0.2605E-12 -0.9958E-14
   3.840 -0.5352E-12 -0.2066E-13
   3.860 -0.1088E-11 -0.4242E-13
   3.880 -0.2187E-11 -0.8616E-13
   3.900 -0.4349E-11 -0.1731E-12
   3.920 -0.8555E-11 -0.3442E-12
   3.940 -0.1664E-10 -0.6771E-12
   3.960 -0.3203E-10 -0.1318E-11
   3.980 -0.6097E-10 -0.2537E-11
   4.000 -0.1148E-09 -0.4833E-11
   4.020 -0.2137E-09 -0.9108E-11
   4.040 -0.3937E-09 -0.1698E-10
   4.060 -0.7171E-09 -0.3132E-10
   4.080 -0.1292E-08 -0.5716E-10
   4.100 -0.2302E-08 -0.1032E-09
   4.120 -0.4056E-08 -0.1843E-09
   4.140 -0.7069E-08 -0.3257E-09
   4.160 -0.1218E-07 -0.5694E-09
   4.180 -0.2077E-07 -0.9847E-09
   4.200 -0.3501E-07 -0.1685E-08
   4.220 -0.5835E-07 -0.2852E-08
   4.240 -0.9619E-07 -0.4776E-08
   4.260 -0.1568E-06 -0.7911E-08
   4.280 -0.2527E-06 -0.1297E-07
   4.300 -0.4027E-06 -0.2102E-07
   4.320 -0.6346E-06 -0.3371E-07
   4.340 -0.9888E-06 -0.5349E-07
   4.360 -0.1523E-05 -0.8395E-07
   4.380 -0.2320E-05 -0.1303E-06
   4.400 -0.3493E-05 -0.2002E-06
   4.420 -0.5198E-05 -0.3042E-06
   4.440 -0.7648E-05 -0.4571E-06
   4.460 -0.1112E-04 -0.6795E-06
   4.480 -0.1598E-04 -0.9992E-06
   4.500 -0.2270E-04 -0.1453E-05
   4.520 -0.3187E-04 -0.2091E-05
   4.540 -0.4420E-04 -0.2975E-05
   4.560 -0.6056E-04 -0.4186E-05
   4.580 -0.8197E-04 -0.5825E-05
   4.600 -0.1096E-03 -0.8017E-05
   4.620 -0.1447E-03 -0.1091E-04
   4.640 -0.1885E-03 -0.1468E-04
   4.660 -0.2425E-03 -0.1953E-04
   4.680 -0.3078E-03 -0.2569E-04
   4.700 -0.3853E-03 -0.3339E-04
   4.720 -0.4755E-03 -0.4290E-04
   4.740 -0.5783E-03 -0.5447E-04
   4.760 -0.6925E-03 -0.6832E-04
   4.780 -0.8157E-03 -0.8463E-04
   4.800 -0.9443E-03 -0.1035E-03
   4.820 -0.1073E-02 -0.1250E-03
   4.840 -0.1193E-02 -0.1488E-03
   4.860 -0.1296E-02 -0.1747E-03
   4.880 -0.1369E-02 -0.2021E-03
   4.900 -0.1398E-02 -0.2301E-03
   4.920 -0.1367E-02 -0.2574E-03
   4.940 -0.1256E-02 -0.2825E-03
   4.960 -0.1048E-02 -0.3035E-03
   4.980 -0.7209E-03 -0.3179E-03
   5.000 -0.2549E-03 -0.3230E-03
   5.020  0.3694E-03 -0.3156E-03
   5.040  0.1170E-02 -0.2922E-03
   5.060  0.2161E-02 -0.2490E-03
   5.080  0.3354E-02 -0.1819E-03
   5.100  0.4756E-02 -0.8683E-04
   5.120  0.6369E-02  0.4054E-04
   5.140  0.8190E-02  0.2043E-03
   5.160  0.1021E-01  0.4085E-03
   5.180  0.1242E-01  0.6568E-03
   5.200  0.1479E-01  0.9526E-03
   5.220  0.1731E-01  0.1299E-02
   5.240  0.1995E-01  0.1698E-02
   5.260  0.2268E-01  0.2151E-02
   5.280  0.2548E-01  0.2661E-02
   5.300  0.2831E-01  0.3227E-02
   5.320  0.3116E-01  0.3850E-02
   5.340  0.3398E-01  0.4530E-02
   5.360  0.3677E-01  0.5265E-02
   5.380  0.3950E-01  0.6056E-02
   5.400  0.4217E-01  0.6899E-02
   5.420  0.4474E-01  0.7794E-02
   5.440  0.4724E-01  0.8738E-02
   5.460  0.4964E-01  0.9731E-02
   5.480  0.5195E-01  0.1077E-01
   5.500  0.5417E-01  0.1185E-01
   5.520  0.5633E-01  0.1298E-01
   5.540  0.5841E-01  0.1415E-01
   5.560  0.6043E-01  0.1536E-01
   5.580  0.6241E-01  0.1661E-01
   5.600  0.6435E-01  0.1789E-01
   5.620  0.6625E-01  0.1922E-01
   5.640  0.6813E-01  0.2058E-01
   5.660  0.6998E-01  0.2198E-01
   5.680  0.7182E-01  0.2342E-01
   5.700  0.7363E-01  0.2489E-01
   5.720  0.7543E-01  0.2640E-01
   5.740  0.7720E-01  0.2794E-01
   5.760  0.7895E-01  0.2952E-01
   5.780  0.8069E-01  0.3113E-01
   5.800  0.8242E-01  0.3278E-01
   5.820  0.8413E-01  0.3446E-01
   5.840  0.8584E-01  0.3618E-01
   5.860  0.8755E-01  0.3793E-01
   5.880  0.8927E-01  0.3972E-01
   5.900  0.9097E-01  0.4154E-01
   5.920  0.9266E-01  0.4339E-01
   5.940  0.9431E-01  0.4528E-01
   5.960  0.9590E-01  0.4719E-01
   5.980  0.9738E-01  0.4914E-01
   6.000  0.9872E-01  0.5112E-01
   6.020  0.9986E-01  0.5311E-01
   6.040  0.1007E+00  0.5513E-01
   6.060  0.1013E+00  0.5716E-01
   6.080  0.1016E+00  0.5919E-01
   6.100  0.1014E+00  0.6122E-01
   6.120  0.1009E+00  0.6323E-01
   6.140  0.9997E-01  0.6523E-01
   6.160  0.9870E-01  0.6721E-01
   6.180  0.9714E-01  0.6915E-01
   6.200  0.9542E-01  0.7106E-01
   6.220  0.9368E-01  0.7293E-01
   6.240  0.9216E-01  0.7477E-01
   6.260  0.9112E-01  0.7660E-01
   6.280  0.9090E-01  0.7842E-01
   6.300  0.9190E-01  0.8025E-01
   6.320  0.9460E-01  0.8214E-01
   6.340  0.9953E-01  0.8414E-01
   6.360  0.1073E+00  0.8628E-01
   6.380  0.1185E+00  0.8865E-01
   6.400  0.1339E+00  0.9133E-01
   6.420  0.1542E+00  0.9442E-01
   6.440  0.1800E+00  0.9802E-01
   6.460  0.2120E+00  0.1023E+00
   6.480  0.2508E+00  0.1073E+00
   6.500  0.2968E+00  0.1132E+00
   6.520  0.3505E+00  0.1202E+00
   6.540  0.4119E+00  0.1285E+00
   6.560  0.4813E+00  0.1381E+00
   6.580  0.5584E+00  0.1493E+00
   6.600  0.6431E+00  0.1621E+00
   6.620  0.7349E+00  0.1768E+00
   6.640  0.8332E+00  0.1935E+00
   6.660  0.9375E+00  0.2122E+00
   6.680  0.1047E+01  0.2332E+00
   6.700  0.1161E+01  0.2564E+00
   6.720  0.1279E+01  0.2820E+00
   6.740  0.1400E+01  0.3100E+00
   6.760  0.1524E+01  0.3405E+00
   6.780  0.1649E+01  0.3734E+00
   6.800  0.1776E+01  0.4090E+00
   6.820  0.1903E+01  0.4470E+00
   6.840  0.2030E+01  0.4876E+00
   6.860  0.2157E+01  0.5308E+00
   6.880  0.2282E+01  0.5764E+00
   6.900  0.2405E+01  0.6245E+00
   6.920  0.2525E+01  0.6750E+00
   6.940  0.2641E+01  0.7278E+00
   6.960  0.2751E+01  0.7828E+00
   6.980  0.2855E+01  0.8399E+00
   7.000  0.2950E+01  0.8989E+00
   7.020  0.3037E+01  0.9597E+00
   7.040  0.3113E+01  0.1022E+01
   7.060  0.3177E+01  0.1085E+01
