#  E (eV)   dos(E)     Int dos(E) EFermi =   13.005 eV
  -5.000 -0.4118E-81 -0.8237E-83
  -4.980 -0.4112E-81 -0.1646E-82
  -4.960 -0.4105E-81 -0.2467E-82
  -4.940 -0.4099E-81 -0.3287E-82
  -4.920 -0.4092E-81 -0.4105E-82
  -4.900 -0.4086E-81 -0.4922E-82
  -4.880 -0.4079E-81 -0.5738E-82
  -4.860 -0.4073E-81 -0.6553E-82
  -4.840 -0.4066E-81 -0.7366E-82
  -4.820 -0.4060E-81 -0.8178E-82
  -4.800 -0.4053E-81 -0.8989E-82
  -4.780 -0.4047E-81 -0.9798E-82
  -4.760 -0.4040E-81 -0.1061E-81
  -4.740 -0.4034E-81 -0.1141E-81
  -4.720 -0.4027E-81 -0.1222E-81
  -4.700 -0.4021E-81 -0.1302E-81
  -4.680 -0.4014E-81 -0.1383E-81
  -4.660 -0.4008E-81 -0.1463E-81
  -4.640 -0.4001E-81 -0.1543E-81
  -4.620 -0.3995E-81 -0.1623E-81
  -4.600 -0.3988E-81 -0.1702E-81
  -4.580 -0.3982E-81 -0.1782E-81
  -4.560 -0.3976E-81 -0.1862E-81
  -4.540 -0.3969E-81 -0.1941E-81
  -4.520 -0.3963E-81 -0.2020E-81
  -4.500 -0.3956E-81 -0.2099E-81
  -4.480 -0.3950E-81 -0.2178E-81
  -4.460 -0.3944E-81 -0.2257E-81
  -4.440 -0.3937E-81 -0.2336E-81
  -4.420 -0.3931E-81 -0.2414E-81
  -4.400 -0.3924E-81 -0.2493E-81
  -4.380 -0.3918E-81 -0.2571E-81
  -4.360 -0.3912E-81 -0.2650E-81
  -4.340 -0.3905E-81 -0.2728E-81
  -4.320 -0.3899E-81 -0.2806E-81
  -4.300 -0.3893E-81 -0.2884E-81
  -4.280 -0.3886E-81 -0.2961E-81
  -4.260 -0.3880E-81 -0.3039E-81
  -4.240 -0.3874E-81 -0.3116E-81
  -4.220 -0.3867E-81 -0.3194E-81
  -4.200 -0.3861E-81 -0.3271E-81
  -4.180 -0.3855E-81 -0.3348E-81
  -4.160 -0.3848E-81 -0.3425E-81
  -4.140 -0.3842E-81 -0.3502E-81
  -4.120 -0.3836E-81 -0.3578E-81
  -4.100 -0.3829E-81 -0.3655E-81
  -4.080 -0.3823E-81 -0.3732E-81
  -4.060 -0.3817E-81 -0.3808E-81
  -4.040 -0.3811E-81 -0.3884E-81
  -4.020 -0.3804E-81 -0.3960E-81
  -4.000 -0.3798E-81 -0.4036E-81
  -3.980 -0.3792E-81 -0.4112E-81
  -3.960 -0.3786E-81 -0.4188E-81
  -3.940 -0.3779E-81 -0.4263E-81
  -3.920 -0.3773E-81 -0.4339E-81
  -3.900 -0.3767E-81 -0.4414E-81
  -3.880 -0.3761E-81 -0.4489E-81
  -3.860 -0.3755E-81 -0.4564E-81
  -3.840 -0.3748E-81 -0.4639E-81
  -3.820 -0.3742E-81 -0.4714E-81
  -3.800 -0.3736E-81 -0.4789E-81
  -3.780 -0.3730E-81 -0.4863E-81
  -3.760 -0.3724E-81 -0.4938E-81
  -3.740 -0.3717E-81 -0.5012E-81
  -3.720 -0.3711E-81 -0.5087E-81
  -3.700 -0.3705E-81 -0.5161E-81
  -3.680 -0.3699E-81 -0.5235E-81
  -3.660 -0.3693E-81 -0.5308E-81
  -3.640 -0.3687E-81 -0.5382E-81
  -3.620 -0.3680E-81 -0.5456E-81
  -3.600 -0.3674E-81 -0.5529E-81
  -3.580 -0.3668E-81 -0.5603E-81
  -3.560 -0.3662E-81 -0.5676E-81
  -3.540 -0.3656E-81 -0.5749E-81
  -3.520 -0.3650E-81 -0.5822E-81
  -3.500 -0.3644E-81 -0.5895E-81
  -3.480 -0.3638E-81 -0.5968E-81
  -3.460 -0.3632E-81 -0.6040E-81
  -3.440 -0.3626E-81 -0.6113E-81
  -3.420 -0.3619E-81 -0.6185E-81
  -3.400 -0.3613E-81 -0.6257E-81
  -3.380 -0.3607E-81 -0.6330E-81
  -3.360 -0.3601E-81 -0.6402E-81
  -3.340 -0.3595E-81 -0.6474E-81
  -3.320 -0.3589E-81 -0.6545E-81
  -3.300 -0.3583E-81 -0.6617E-81
  -3.280 -0.3577E-81 -0.6689E-81
  -3.260 -0.3571E-81 -0.6760E-81
  -3.240 -0.3565E-81 -0.6831E-81
  -3.220 -0.3559E-81 -0.6902E-81
  -3.200 -0.3553E-81 -0.6973E-81
  -3.180 -0.3547E-81 -0.7044E-81
  -3.160 -0.3541E-81 -0.7115E-81
  -3.140 -0.3535E-81 -0.7186E-81
  -3.120 -0.3529E-81 -0.7257E-81
  -3.100 -0.3523E-81 -0.7327E-81
  -3.080 -0.3517E-81 -0.7397E-81
  -3.060 -0.3511E-81 -0.7468E-81
  -3.040 -0.3505E-81 -0.7538E-81
  -3.020 -0.3499E-81 -0.7608E-81
  -3.000 -0.3493E-81 -0.7678E-81
  -2.980 -0.3487E-81 -0.7747E-81
  -2.960 -0.3481E-81 -0.7817E-81
  -2.940 -0.3476E-81 -0.7886E-81
  -2.920 -0.3470E-81 -0.7956E-81
  -2.900 -0.3464E-81 -0.8025E-81
  -2.880 -0.3458E-81 -0.8094E-81
  -2.860 -0.3452E-81 -0.8163E-81
  -2.840 -0.3446E-81 -0.8232E-81
  -2.820 -0.3440E-81 -0.8301E-81
  -2.800 -0.3434E-81 -0.8370E-81
  -2.780 -0.3428E-81 -0.8438E-81
  -2.760 -0.3423E-81 -0.8507E-81
  -2.740 -0.3417E-81 -0.8575E-81
  -2.720 -0.3411E-81 -0.8643E-81
  -2.700 -0.3405E-81 -0.8711E-81
  -2.680 -0.3399E-81 -0.8779E-81
  -2.660 -0.3393E-81 -0.8847E-81
  -2.640 -0.3387E-81 -0.8915E-81
  -2.620 -0.3382E-81 -0.8983E-81
  -2.600 -0.3376E-81 -0.9050E-81
  -2.580 -0.3370E-81 -0.9117E-81
  -2.560 -0.3364E-81 -0.9185E-81
  -2.540 -0.3358E-81 -0.9252E-81
  -2.520 -0.3353E-81 -0.9319E-81
  -2.500 -0.3347E-81 -0.9386E-81
  -2.480 -0.3341E-81 -0.9453E-81
  -2.460 -0.3335E-81 -0.9519E-81
  -2.440 -0.3329E-81 -0.9586E-81
  -2.420 -0.3324E-81 -0.9653E-81
  -2.400 -0.3318E-81 -0.9719E-81
  -2.380 -0.3312E-81 -0.9785E-81
  -2.360 -0.3306E-81 -0.9851E-81
  -2.340 -0.3301E-81 -0.9917E-81
  -2.320 -0.3295E-81 -0.9983E-81
  -2.300 -0.3289E-81 -0.1005E-80
  -2.280 -0.3284E-81 -0.1011E-80
  -2.260 -0.3278E-81 -0.1018E-80
  -2.240 -0.3272E-81 -0.1025E-80
  -2.220 -0.3266E-81 -0.1031E-80
  -2.200 -0.3261E-81 -0.1038E-80
  -2.180 -0.3255E-81 -0.1044E-80
  -2.160 -0.3249E-81 -0.1051E-80
  -2.140 -0.3244E-81 -0.1057E-80
  -2.120 -0.3238E-81 -0.1064E-80
  -2.100 -0.3232E-81 -0.1070E-80
  -2.080 -0.3227E-81 -0.1077E-80
  -2.060 -0.3221E-81 -0.1083E-80
  -2.040 -0.3215E-81 -0.1089E-80
  -2.020 -0.3210E-81 -0.1096E-80
  -2.000 -0.3204E-81 -0.1102E-80
  -1.980 -0.3198E-81 -0.1109E-80
  -1.960 -0.3193E-81 -0.1115E-80
  -1.940 -0.3187E-81 -0.1121E-80
  -1.920 -0.3182E-81 -0.1128E-80
  -1.900 -0.3176E-81 -0.1134E-80
  -1.880 -0.3170E-81 -0.1140E-80
  -1.860 -0.3165E-81 -0.1147E-80
  -1.840 -0.3159E-81 -0.1153E-80
  -1.820 -0.3154E-81 -0.1159E-80
  -1.800 -0.3148E-81 -0.1166E-80
  -1.780 -0.3143E-81 -0.1172E-80
  -1.760 -0.3137E-81 -0.1178E-80
  -1.740 -0.3131E-81 -0.1184E-80
  -1.720 -0.3126E-81 -0.1191E-80
  -1.700 -0.3120E-81 -0.1197E-80
  -1.680 -0.3115E-81 -0.1203E-80
  -1.660 -0.3109E-81 -0.1209E-80
  -1.640 -0.3104E-81 -0.1216E-80
  -1.620 -0.3098E-81 -0.1222E-80
  -1.600 -0.3093E-81 -0.1228E-80
  -1.580 -0.3087E-81 -0.1234E-80
  -1.560 -0.3082E-81 -0.1240E-80
  -1.540 -0.3076E-81 -0.1247E-80
  -1.520 -0.3071E-81 -0.1253E-80
  -1.500 -0.3065E-81 -0.1259E-80
  -1.480 -0.3060E-81 -0.1265E-80
  -1.460 -0.3054E-81 -0.1271E-80
  -1.440 -0.3049E-81 -0.1277E-80
  -1.420 -0.3043E-81 -0.1283E-80
  -1.400 -0.3038E-81 -0.1289E-80
  -1.380 -0.3033E-81 -0.1295E-80
  -1.360 -0.3027E-81 -0.1301E-80
  -1.340 -0.3022E-81 -0.1307E-80
  -1.320 -0.3016E-81 -0.1313E-80
  -1.300 -0.3011E-81 -0.1319E-80
  -1.280 -0.3005E-81 -0.1325E-80
  -1.260 -0.3000E-81 -0.1331E-80
  -1.240 -0.2995E-81 -0.1337E-80
  -1.220 -0.2989E-81 -0.1343E-80
  -1.200 -0.2984E-81 -0.1349E-80
  -1.180 -0.2978E-81 -0.1355E-80
  -1.160 -0.2973E-81 -0.1361E-80
  -1.140 -0.2968E-81 -0.1367E-80
  -1.120 -0.2962E-81 -0.1373E-80
  -1.100 -0.2957E-81 -0.1379E-80
  -1.080 -0.2952E-81 -0.1385E-80
  -1.060 -0.2946E-81 -0.1391E-80
  -1.040 -0.2941E-81 -0.1397E-80
  -1.020 -0.2936E-81 -0.1403E-80
  -1.000 -0.2930E-81 -0.1409E-80
  -0.980 -0.2925E-81 -0.1414E-80
  -0.960 -0.2920E-81 -0.1420E-80
  -0.940 -0.2914E-81 -0.1426E-80
  -0.920 -0.2909E-81 -0.1432E-80
  -0.900 -0.2904E-81 -0.1438E-80
  -0.880 -0.2898E-81 -0.1443E-80
  -0.860 -0.2893E-81 -0.1449E-80
  -0.840 -0.2888E-81 -0.1455E-80
  -0.820 -0.2883E-81 -0.1461E-80
  -0.800 -0.2877E-81 -0.1467E-80
  -0.780 -0.2872E-81 -0.1472E-80
  -0.760 -0.2867E-81 -0.1478E-80
  -0.740 -0.2862E-81 -0.1484E-80
  -0.720 -0.2856E-81 -0.1489E-80
  -0.700 -0.2851E-81 -0.1495E-80
  -0.680 -0.2846E-81 -0.1501E-80
  -0.660 -0.2841E-81 -0.1507E-80
  -0.640 -0.2836E-81 -0.1512E-80
  -0.620 -0.2830E-81 -0.1518E-80
  -0.600 -0.2825E-81 -0.1524E-80
  -0.580 -0.2820E-81 -0.1529E-80
  -0.560 -0.2815E-81 -0.1535E-80
  -0.540 -0.2810E-81 -0.1540E-80
  -0.520 -0.2804E-81 -0.1546E-80
  -0.500 -0.2799E-81 -0.1552E-80
  -0.480 -0.2794E-81 -0.1557E-80
  -0.460 -0.2789E-81 -0.1563E-80
  -0.440 -0.2784E-81 -0.1568E-80
  -0.420 -0.2779E-81 -0.1574E-80
  -0.400 -0.2773E-81 -0.1579E-80
  -0.380 -0.2768E-81 -0.1585E-80
  -0.360 -0.2763E-81 -0.1591E-80
  -0.340 -0.2758E-81 -0.1596E-80
  -0.320 -0.2753E-81 -0.1602E-80
  -0.300 -0.2748E-81 -0.1607E-80
  -0.280 -0.2743E-81 -0.1613E-80
  -0.260 -0.2738E-81 -0.1618E-80
  -0.240 -0.2733E-81 -0.1623E-80
  -0.220 -0.2728E-81 -0.1629E-80
  -0.200 -0.2722E-81 -0.1634E-80
  -0.180 -0.2717E-81 -0.1640E-80
  -0.160 -0.2712E-81 -0.1645E-80
  -0.140 -0.2707E-81 -0.1651E-80
  -0.120 -0.2702E-81 -0.1656E-80
  -0.100 -0.2697E-81 -0.1661E-80
  -0.080 -0.2692E-81 -0.1667E-80
  -0.060 -0.2687E-81 -0.1672E-80
  -0.040 -0.2682E-81 -0.1678E-80
  -0.020 -0.2677E-81 -0.1683E-80
   0.000 -0.2672E-81 -0.1688E-80
   0.020 -0.2667E-81 -0.1694E-80
   0.040 -0.2662E-81 -0.1699E-80
   0.060 -0.2657E-81 -0.1704E-80
   0.080 -0.2652E-81 -0.1710E-80
   0.100 -0.2647E-81 -0.1715E-80
   0.120 -0.2642E-81 -0.1720E-80
   0.140 -0.2637E-81 -0.1725E-80
   0.160 -0.2632E-81 -0.1731E-80
   0.180 -0.2627E-81 -0.1736E-80
   0.200 -0.2622E-81 -0.1741E-80
   0.220 -0.2617E-81 -0.1746E-80
   0.240 -0.2612E-81 -0.1752E-80
   0.260 -0.2607E-81 -0.1757E-80
   0.280 -0.2602E-81 -0.1762E-80
   0.300 -0.2598E-81 -0.1767E-80
   0.320 -0.2593E-81 -0.1772E-80
   0.340 -0.2588E-81 -0.1778E-80
   0.360 -0.2583E-81 -0.1783E-80
   0.380 -0.2578E-81 -0.1788E-80
   0.400 -0.2573E-81 -0.1793E-80
   0.420 -0.2568E-81 -0.1798E-80
   0.440 -0.2563E-81 -0.1803E-80
   0.460 -0.2558E-81 -0.1808E-80
   0.480 -0.2554E-81 -0.1814E-80
   0.500 -0.2549E-81 -0.1819E-80
   0.520 -0.2544E-81 -0.1824E-80
   0.540 -0.2539E-81 -0.1829E-80
   0.560 -0.2534E-81 -0.1834E-80
   0.580 -0.2529E-81 -0.1839E-80
   0.600 -0.2524E-81 -0.1844E-80
   0.620 -0.2520E-81 -0.1849E-80
   0.640 -0.2515E-81 -0.1854E-80
   0.660 -0.2510E-81 -0.1859E-80
   0.680 -0.2505E-81 -0.1864E-80
   0.700 -0.2500E-81 -0.1869E-80
   0.720 -0.2496E-81 -0.1874E-80
   0.740 -0.2491E-81 -0.1879E-80
   0.760 -0.2486E-81 -0.1884E-80
   0.780 -0.2481E-81 -0.1889E-80
   0.800 -0.2477E-81 -0.1894E-80
   0.820 -0.2472E-81 -0.1899E-80
   0.840 -0.2467E-81 -0.1904E-80
   0.860 -0.2462E-81 -0.1909E-80
   0.880 -0.2458E-81 -0.1914E-80
   0.900 -0.2453E-81 -0.1919E-80
   0.920 -0.2448E-81 -0.1923E-80
   0.940 -0.2443E-81 -0.1928E-80
   0.960 -0.2439E-81 -0.1933E-80
   0.980 -0.2434E-81 -0.1938E-80
   1.000 -0.2429E-81 -0.1943E-80
   1.020 -0.2425E-81 -0.1948E-80
   1.040 -0.2420E-81 -0.1953E-80
   1.060 -0.2415E-81 -0.1957E-80
   1.080 -0.2410E-81 -0.1962E-80
   1.100 -0.2406E-81 -0.1967E-80
   1.120 -0.2401E-81 -0.1972E-80
   1.140 -0.2396E-81 -0.1977E-80
   1.160 -0.2392E-81 -0.1981E-80
   1.180 -0.2387E-81 -0.1986E-80
   1.200 -0.2383E-81 -0.1991E-80
   1.220 -0.2378E-81 -0.1996E-80
   1.240 -0.2373E-81 -0.2001E-80
   1.260 -0.2369E-81 -0.2005E-80
   1.280 -0.2364E-81 -0.2010E-80
   1.300 -0.2359E-81 -0.2015E-80
   1.320 -0.2355E-81 -0.2019E-80
   1.340 -0.2350E-81 -0.2024E-80
   1.360 -0.2346E-81 -0.2029E-80
   1.380 -0.2341E-81 -0.2033E-80
   1.400 -0.2340E-81 -0.2038E-80
   1.420 -0.2355E-81 -0.2043E-80
   1.440 -0.2502E-81 -0.2048E-80
   1.460 -0.3617E-81 -0.2055E-80
   1.480 -0.1182E-80 -0.2079E-80
   1.500 -0.7128E-80 -0.2221E-80
   1.520 -0.4976E-79 -0.3216E-80
   1.540 -0.3521E-78 -0.1026E-79
   1.560 -0.2473E-77 -0.5971E-79
   1.580 -0.1719E-76 -0.4035E-78
   1.600 -0.1182E-75 -0.2767E-77
   1.620 -0.8038E-75 -0.1884E-76
   1.640 -0.5408E-74 -0.1270E-75
   1.660 -0.3600E-73 -0.8469E-75
   1.680 -0.2370E-72 -0.5587E-74
   1.700 -0.1543E-71 -0.3645E-73
   1.720 -0.9942E-71 -0.2353E-72
   1.740 -0.6335E-70 -0.1502E-71
   1.760 -0.3994E-69 -0.9489E-71
   1.780 -0.2490E-68 -0.5929E-70
   1.800 -0.1536E-67 -0.3665E-69
   1.820 -0.9370E-67 -0.2240E-68
   1.840 -0.5655E-66 -0.1355E-67
   1.860 -0.3376E-65 -0.8107E-67
   1.880 -0.1994E-64 -0.4798E-66
   1.900 -0.1164E-63 -0.2809E-65
   1.920 -0.6728E-63 -0.1627E-64
   1.940 -0.3846E-62 -0.9318E-64
   1.960 -0.2174E-61 -0.5280E-63
   1.980 -0.1216E-60 -0.2960E-62
   2.000 -0.6727E-60 -0.1641E-61
   2.020 -0.3681E-59 -0.9003E-61
   2.040 -0.1992E-58 -0.4885E-60
   2.060 -0.1067E-57 -0.2622E-59
   2.080 -0.5650E-57 -0.1392E-58
   2.100 -0.2960E-56 -0.7312E-58
   2.120 -0.1534E-55 -0.3799E-57
   2.140 -0.7862E-55 -0.1952E-56
   2.160 -0.3987E-54 -0.9926E-56
   2.180 -0.2000E-53 -0.4992E-55
   2.200 -0.9920E-53 -0.2483E-54
   2.220 -0.4868E-52 -0.1222E-53
   2.240 -0.2363E-51 -0.5948E-53
   2.260 -0.1135E-50 -0.2864E-52
   2.280 -0.5389E-50 -0.1364E-51
   2.300 -0.2532E-49 -0.6428E-51
   2.320 -0.1177E-48 -0.2996E-50
   2.340 -0.5409E-48 -0.1381E-49
   2.360 -0.2459E-47 -0.6300E-49
   2.380 -0.1106E-46 -0.2842E-48
   2.400 -0.4921E-46 -0.1268E-47
   2.420 -0.2165E-45 -0.5599E-47
   2.440 -0.9425E-45 -0.2445E-46
   2.460 -0.4058E-44 -0.1056E-45
   2.480 -0.1728E-43 -0.4512E-45
   2.500 -0.7280E-43 -0.1907E-44
   2.520 -0.3033E-42 -0.7974E-44
   2.540 -0.1250E-41 -0.3298E-43
   2.560 -0.5097E-41 -0.1349E-42
   2.580 -0.2055E-40 -0.5460E-42
   2.600 -0.8199E-40 -0.2186E-41
   2.620 -0.3235E-39 -0.8655E-41
   2.640 -0.1262E-38 -0.3390E-40
   2.660 -0.4873E-38 -0.1314E-39
   2.680 -0.1861E-37 -0.5035E-39
   2.700 -0.7027E-37 -0.1909E-38
   2.720 -0.2625E-36 -0.7158E-38
   2.740 -0.9699E-36 -0.2656E-37
   2.760 -0.3545E-35 -0.9745E-37
   2.780 -0.1281E-34 -0.3537E-36
   2.800 -0.4582E-34 -0.1270E-35
   2.820 -0.1621E-33 -0.4511E-35
   2.840 -0.5669E-33 -0.1585E-34
   2.860 -0.1962E-32 -0.5508E-34
   2.880 -0.6714E-32 -0.1894E-33
   2.900 -0.2273E-31 -0.6439E-33
   2.920 -0.7610E-31 -0.2166E-32
   2.940 -0.2520E-30 -0.7207E-32
   2.960 -0.8257E-30 -0.2372E-31
   2.980 -0.2675E-29 -0.7723E-31
   3.000 -0.8574E-29 -0.2487E-30
   3.020 -0.2718E-28 -0.7923E-30
   3.040 -0.8522E-28 -0.2497E-29
   3.060 -0.2643E-27 -0.7782E-29
   3.080 -0.8106E-27 -0.2399E-28
   3.100 -0.2459E-26 -0.7318E-28
   3.120 -0.7380E-26 -0.2208E-27
   3.140 -0.2190E-25 -0.6589E-27
   3.160 -0.6431E-25 -0.1945E-26
   3.180 -0.1867E-24 -0.5680E-26
   3.200 -0.5363E-24 -0.1641E-25
   3.220 -0.1523E-23 -0.4687E-25
   3.240 -0.4280E-23 -0.1325E-24
   3.260 -0.1189E-22 -0.3704E-24
   3.280 -0.3269E-22 -0.1024E-23
   3.300 -0.8888E-22 -0.2802E-23
   3.320 -0.2390E-21 -0.7582E-23
   3.340 -0.6356E-21 -0.2029E-22
   3.360 -0.1672E-20 -0.5374E-22
   3.380 -0.4350E-20 -0.1407E-21
   3.400 -0.1120E-19 -0.3647E-21
   3.420 -0.2850E-19 -0.9346E-21
   3.440 -0.7174E-19 -0.2369E-20
   3.460 -0.1786E-18 -0.5942E-20
   3.480 -0.4399E-18 -0.1474E-19
   3.500 -0.1072E-17 -0.3617E-19
   3.520 -0.2582E-17 -0.8782E-19
   3.540 -0.6153E-17 -0.2109E-18
   3.560 -0.1450E-16 -0.5010E-18
   3.580 -0.3381E-16 -0.1177E-17
   3.600 -0.7797E-16 -0.2737E-17
   3.620 -0.1778E-15 -0.6293E-17
   3.640 -0.4012E-15 -0.1432E-16
   3.660 -0.8952E-15 -0.3222E-16
   3.680 -0.1976E-14 -0.7174E-16
   3.700 -0.4313E-14 -0.1580E-15
   3.720 -0.9314E-14 -0.3443E-15
   3.740 -0.1989E-13 -0.7422E-15
   3.760 -0.4203E-13 -0.1583E-14
   3.780 -0.8783E-13 -0.3339E-14
   3.800 -0.1816E-12 -0.6970E-14
   3.820 -0.3712E-12 -0.1439E-13
   3.840 -0.7508E-12 -0.2941E-13
   3.860 -0.1502E-11 -0.5945E-13
   3.880 -0.2973E-11 -0.1189E-12
   3.900 -0.5820E-11 -0.2353E-12
   3.920 -0.1127E-10 -0.4607E-12
   3.940 -0.2159E-10 -0.8926E-12
   3.960 -0.4092E-10 -0.1711E-11
   3.980 -0.7673E-10 -0.3246E-11
   4.000 -0.1423E-09 -0.6092E-11
   4.020 -0.2611E-09 -0.1131E-10
   4.040 -0.4740E-09 -0.2080E-10
   4.060 -0.8513E-09 -0.3782E-10
   4.080 -0.1513E-08 -0.6808E-10
   4.100 -0.2659E-08 -0.1213E-09
   4.120 -0.4625E-08 -0.2138E-09
   4.140 -0.7958E-08 -0.3729E-09
   4.160 -0.1355E-07 -0.6439E-09
   4.180 -0.2282E-07 -0.1100E-08
   4.200 -0.3804E-07 -0.1861E-08
   4.220 -0.6273E-07 -0.3116E-08
   4.240 -0.1023E-06 -0.5163E-08
   4.260 -0.1652E-06 -0.8467E-08
   4.280 -0.2639E-06 -0.1375E-07
   4.300 -0.4171E-06 -0.2209E-07
   4.320 -0.6522E-06 -0.3513E-07
   4.340 -0.1009E-05 -0.5531E-07
   4.360 -0.1545E-05 -0.8621E-07
   4.380 -0.2339E-05 -0.1330E-06
   4.400 -0.3504E-05 -0.2031E-06
   4.420 -0.5193E-05 -0.3069E-06
   4.440 -0.7612E-05 -0.4592E-06
   4.460 -0.1104E-04 -0.6799E-06
   4.480 -0.1583E-04 -0.9965E-06
   4.500 -0.2245E-04 -0.1445E-05
   4.520 -0.3148E-04 -0.2075E-05
   4.540 -0.4364E-04 -0.2948E-05
   4.560 -0.5981E-04 -0.4144E-05
   4.580 -0.8102E-04 -0.5765E-05
   4.600 -0.1084E-03 -0.7933E-05
   4.620 -0.1434E-03 -0.1080E-04
   4.640 -0.1872E-03 -0.1455E-04
   4.660 -0.2414E-03 -0.1937E-04
   4.680 -0.3071E-03 -0.2552E-04
   4.700 -0.3855E-03 -0.3322E-04
   4.720 -0.4770E-03 -0.4277E-04
   4.740 -0.5816E-03 -0.5440E-04
   4.760 -0.6981E-03 -0.6836E-04
   4.780 -0.8242E-03 -0.8484E-04
   4.800 -0.9559E-03 -0.1040E-03
   4.820 -0.1087E-02 -0.1257E-03
   4.840 -0.1210E-02 -0.1499E-03
   4.860 -0.1314E-02 -0.1762E-03
   4.880 -0.1386E-02 -0.2039E-03
   4.900 -0.1412E-02 -0.2322E-03
   4.920 -0.1373E-02 -0.2596E-03
   4.940 -0.1251E-02 -0.2846E-03
   4.960 -0.1027E-02 -0.3052E-03
   4.980 -0.6789E-03 -0.3187E-03
   5.000 -0.1890E-03 -0.3225E-03
   5.020  0.4605E-03 -0.3133E-03
   5.040  0.1284E-02 -0.2876E-03
   5.060  0.2293E-02 -0.2418E-03
   5.080  0.3495E-02 -0.1719E-03
   5.100  0.4890E-02 -0.7407E-04
   5.120  0.6477E-02  0.5548E-04
   5.140  0.8250E-02  0.2205E-03
   5.160  0.1020E-01  0.4244E-03
   5.180  0.1231E-01  0.6706E-03
   5.200  0.1457E-01  0.9619E-03
   5.220  0.1696E-01  0.1301E-02
   5.240  0.1947E-01  0.1691E-02
   5.260  0.2210E-01  0.2132E-02
   5.280  0.2482E-01  0.2629E-02
   5.300  0.2763E-01  0.3181E-02
   5.320  0.3051E-01  0.3792E-02
   5.340  0.3346E-01  0.4461E-02
   5.360  0.3646E-01  0.5190E-02
   5.380  0.3948E-01  0.5980E-02
   5.400  0.4251E-01  0.6830E-02
   5.420  0.4550E-01  0.7740E-02
   5.440  0.4842E-01  0.8708E-02
   5.460  0.5122E-01  0.9733E-02
   5.480  0.5386E-01  0.1081E-01
   5.500  0.5629E-01  0.1194E-01
   5.520  0.5847E-01  0.1311E-01
   5.540  0.6039E-01  0.1431E-01
   5.560  0.6203E-01  0.1555E-01
   5.580  0.6340E-01  0.1682E-01
   5.600  0.6454E-01  0.1811E-01
   5.620  0.6550E-01  0.1942E-01
   5.640  0.6636E-01  0.2075E-01
   5.660  0.6720E-01  0.2209E-01
   5.680  0.6813E-01  0.2346E-01
   5.700  0.6923E-01  0.2484E-01
   5.720  0.7060E-01  0.2625E-01
   5.740  0.7230E-01  0.2770E-01
   5.760  0.7439E-01  0.2919E-01
   5.780  0.7688E-01  0.3072E-01
   5.800  0.7975E-01  0.3232E-01
   5.820  0.8294E-01  0.3398E-01
   5.840  0.8636E-01  0.3570E-01
   5.860  0.8990E-01  0.3750E-01
   5.880  0.9342E-01  0.3937E-01
   5.900  0.9676E-01  0.4131E-01
   5.920  0.9978E-01  0.4330E-01
   5.940  0.1023E+00  0.4535E-01
   5.960  0.1043E+00  0.4744E-01
   5.980  0.1056E+00  0.4955E-01
   6.000  0.1061E+00  0.5167E-01
   6.020  0.1059E+00  0.5379E-01
   6.040  0.1049E+00  0.5589E-01
   6.060  0.1032E+00  0.5795E-01
   6.080  0.1010E+00  0.5997E-01
   6.100  0.9821E-01  0.6193E-01
   6.120  0.9515E-01  0.6384E-01
   6.140  0.9196E-01  0.6568E-01
   6.160  0.8885E-01  0.6745E-01
   6.180  0.8602E-01  0.6917E-01
   6.200  0.8369E-01  0.7085E-01
   6.220  0.8210E-01  0.7249E-01
   6.240  0.8147E-01  0.7412E-01
   6.260  0.8205E-01  0.7576E-01
   6.280  0.8411E-01  0.7744E-01
   6.300  0.8791E-01  0.7920E-01
   6.320  0.9376E-01  0.8107E-01
   6.340  0.1020E+00  0.8312E-01
   6.360  0.1130E+00  0.8538E-01
   6.380  0.1272E+00  0.8792E-01
   6.400  0.1450E+00  0.9082E-01
   6.420  0.1670E+00  0.9416E-01
   6.440  0.1937E+00  0.9803E-01
   6.460  0.2255E+00  0.1025E+00
   6.480  0.2631E+00  0.1078E+00
   6.500  0.3070E+00  0.1139E+00
   6.520  0.3576E+00  0.1211E+00
   6.540  0.4153E+00  0.1294E+00
   6.560  0.4805E+00  0.1390E+00
   6.580  0.5532E+00  0.1501E+00
   6.600  0.6335E+00  0.1627E+00
   6.620  0.7212E+00  0.1772E+00
   6.640  0.8162E+00  0.1935E+00
   6.660  0.9181E+00  0.2119E+00
   6.680  0.1026E+01  0.2324E+00
   6.700  0.1140E+01  0.2552E+00
   6.720  0.1259E+01  0.2804E+00
   6.740  0.1382E+01  0.3080E+00
   6.760  0.1508E+01  0.3381E+00
   6.780  0.1637E+01  0.3709E+00
   6.800  0.1767E+01  0.4062E+00
   6.820  0.1898E+01  0.4442E+00
   6.840  0.2029E+01  0.4847E+00
   6.860  0.2158E+01  0.5279E+00
   6.880  0.2286E+01  0.5736E+00
   6.900  0.2410E+01  0.6218E+00
   6.920  0.2531E+01  0.6725E+00
   6.940  0.2647E+01  0.7254E+00
   6.960  0.2756E+01  0.7805E+00
   6.980  0.2858E+01  0.8377E+00
   7.000  0.2952E+01  0.8967E+00
   7.020  0.3036E+01  0.9574E+00
   7.040  0.3110E+01  0.1020E+01
   7.060  0.3172E+01  0.1083E+01
