#  E (eV)   dos(E)     Int dos(E) EFermi =   12.977 eV
  -5.000 -0.4119E-81 -0.8239E-83
  -4.980 -0.4113E-81 -0.1646E-82
  -4.960 -0.4106E-81 -0.2468E-82
  -4.940 -0.4100E-81 -0.3288E-82
  -4.920 -0.4093E-81 -0.4106E-82
  -4.900 -0.4087E-81 -0.4924E-82
  -4.880 -0.4080E-81 -0.5740E-82
  -4.860 -0.4074E-81 -0.6554E-82
  -4.840 -0.4067E-81 -0.7368E-82
  -4.820 -0.4061E-81 -0.8180E-82
  -4.800 -0.4054E-81 -0.8991E-82
  -4.780 -0.4048E-81 -0.9800E-82
  -4.760 -0.4041E-81 -0.1061E-81
  -4.740 -0.4035E-81 -0.1142E-81
  -4.720 -0.4028E-81 -0.1222E-81
  -4.700 -0.4022E-81 -0.1303E-81
  -4.680 -0.4015E-81 -0.1383E-81
  -4.660 -0.4009E-81 -0.1463E-81
  -4.640 -0.4002E-81 -0.1543E-81
  -4.620 -0.3996E-81 -0.1623E-81
  -4.600 -0.3989E-81 -0.1703E-81
  -4.580 -0.3983E-81 -0.1782E-81
  -4.560 -0.3976E-81 -0.1862E-81
  -4.540 -0.3970E-81 -0.1941E-81
  -4.520 -0.3964E-81 -0.2021E-81
  -4.500 -0.3957E-81 -0.2100E-81
  -4.480 -0.3951E-81 -0.2179E-81
  -4.460 -0.3944E-81 -0.2258E-81
  -4.440 -0.3938E-81 -0.2336E-81
  -4.420 -0.3932E-81 -0.2415E-81
  -4.400 -0.3925E-81 -0.2494E-81
  -4.380 -0.3919E-81 -0.2572E-81
  -4.360 -0.3913E-81 -0.2650E-81
  -4.340 -0.3906E-81 -0.2728E-81
  -4.320 -0.3900E-81 -0.2806E-81
  -4.300 -0.3893E-81 -0.2884E-81
  -4.280 -0.3887E-81 -0.2962E-81
  -4.260 -0.3881E-81 -0.3040E-81
  -4.240 -0.3874E-81 -0.3117E-81
  -4.220 -0.3868E-81 -0.3194E-81
  -4.200 -0.3862E-81 -0.3272E-81
  -4.180 -0.3856E-81 -0.3349E-81
  -4.160 -0.3849E-81 -0.3426E-81
  -4.140 -0.3843E-81 -0.3503E-81
  -4.120 -0.3837E-81 -0.3579E-81
  -4.100 -0.3830E-81 -0.3656E-81
  -4.080 -0.3824E-81 -0.3732E-81
  -4.060 -0.3818E-81 -0.3809E-81
  -4.040 -0.3812E-81 -0.3885E-81
  -4.020 -0.3805E-81 -0.3961E-81
  -4.000 -0.3799E-81 -0.4037E-81
  -3.980 -0.3793E-81 -0.4113E-81
  -3.960 -0.3787E-81 -0.4189E-81
  -3.940 -0.3780E-81 -0.4264E-81
  -3.920 -0.3774E-81 -0.4340E-81
  -3.900 -0.3768E-81 -0.4415E-81
  -3.880 -0.3762E-81 -0.4490E-81
  -3.860 -0.3755E-81 -0.4565E-81
  -3.840 -0.3749E-81 -0.4640E-81
  -3.820 -0.3743E-81 -0.4715E-81
  -3.800 -0.3737E-81 -0.4790E-81
  -3.780 -0.3731E-81 -0.4865E-81
  -3.760 -0.3724E-81 -0.4939E-81
  -3.740 -0.3718E-81 -0.5013E-81
  -3.720 -0.3712E-81 -0.5088E-81
  -3.700 -0.3706E-81 -0.5162E-81
  -3.680 -0.3700E-81 -0.5236E-81
  -3.660 -0.3694E-81 -0.5310E-81
  -3.640 -0.3688E-81 -0.5383E-81
  -3.620 -0.3681E-81 -0.5457E-81
  -3.600 -0.3675E-81 -0.5531E-81
  -3.580 -0.3669E-81 -0.5604E-81
  -3.560 -0.3663E-81 -0.5677E-81
  -3.540 -0.3657E-81 -0.5750E-81
  -3.520 -0.3651E-81 -0.5823E-81
  -3.500 -0.3645E-81 -0.5896E-81
  -3.480 -0.3639E-81 -0.5969E-81
  -3.460 -0.3633E-81 -0.6042E-81
  -3.440 -0.3626E-81 -0.6114E-81
  -3.420 -0.3620E-81 -0.6187E-81
  -3.400 -0.3614E-81 -0.6259E-81
  -3.380 -0.3608E-81 -0.6331E-81
  -3.360 -0.3602E-81 -0.6403E-81
  -3.340 -0.3596E-81 -0.6475E-81
  -3.320 -0.3590E-81 -0.6547E-81
  -3.300 -0.3584E-81 -0.6619E-81
  -3.280 -0.3578E-81 -0.6690E-81
  -3.260 -0.3572E-81 -0.6762E-81
  -3.240 -0.3566E-81 -0.6833E-81
  -3.220 -0.3560E-81 -0.6904E-81
  -3.200 -0.3554E-81 -0.6975E-81
  -3.180 -0.3548E-81 -0.7046E-81
  -3.160 -0.3542E-81 -0.7117E-81
  -3.140 -0.3536E-81 -0.7188E-81
  -3.120 -0.3530E-81 -0.7258E-81
  -3.100 -0.3524E-81 -0.7329E-81
  -3.080 -0.3518E-81 -0.7399E-81
  -3.060 -0.3512E-81 -0.7469E-81
  -3.040 -0.3506E-81 -0.7539E-81
  -3.020 -0.3500E-81 -0.7609E-81
  -3.000 -0.3494E-81 -0.7679E-81
  -2.980 -0.3488E-81 -0.7749E-81
  -2.960 -0.3482E-81 -0.7819E-81
  -2.940 -0.3476E-81 -0.7888E-81
  -2.920 -0.3471E-81 -0.7958E-81
  -2.900 -0.3465E-81 -0.8027E-81
  -2.880 -0.3459E-81 -0.8096E-81
  -2.860 -0.3453E-81 -0.8165E-81
  -2.840 -0.3447E-81 -0.8234E-81
  -2.820 -0.3441E-81 -0.8303E-81
  -2.800 -0.3435E-81 -0.8372E-81
  -2.780 -0.3429E-81 -0.8440E-81
  -2.760 -0.3423E-81 -0.8509E-81
  -2.740 -0.3418E-81 -0.8577E-81
  -2.720 -0.3412E-81 -0.8645E-81
  -2.700 -0.3406E-81 -0.8713E-81
  -2.680 -0.3400E-81 -0.8781E-81
  -2.660 -0.3394E-81 -0.8849E-81
  -2.640 -0.3388E-81 -0.8917E-81
  -2.620 -0.3382E-81 -0.8985E-81
  -2.600 -0.3377E-81 -0.9052E-81
  -2.580 -0.3371E-81 -0.9120E-81
  -2.560 -0.3365E-81 -0.9187E-81
  -2.540 -0.3359E-81 -0.9254E-81
  -2.520 -0.3353E-81 -0.9321E-81
  -2.500 -0.3348E-81 -0.9388E-81
  -2.480 -0.3342E-81 -0.9455E-81
  -2.460 -0.3336E-81 -0.9522E-81
  -2.440 -0.3330E-81 -0.9588E-81
  -2.420 -0.3325E-81 -0.9655E-81
  -2.400 -0.3319E-81 -0.9721E-81
  -2.380 -0.3313E-81 -0.9787E-81
  -2.360 -0.3307E-81 -0.9854E-81
  -2.340 -0.3302E-81 -0.9920E-81
  -2.320 -0.3296E-81 -0.9986E-81
  -2.300 -0.3290E-81 -0.1005E-80
  -2.280 -0.3284E-81 -0.1012E-80
  -2.260 -0.3279E-81 -0.1018E-80
  -2.240 -0.3273E-81 -0.1025E-80
  -2.220 -0.3267E-81 -0.1031E-80
  -2.200 -0.3262E-81 -0.1038E-80
  -2.180 -0.3256E-81 -0.1044E-80
  -2.160 -0.3250E-81 -0.1051E-80
  -2.140 -0.3244E-81 -0.1057E-80
  -2.120 -0.3239E-81 -0.1064E-80
  -2.100 -0.3233E-81 -0.1070E-80
  -2.080 -0.3227E-81 -0.1077E-80
  -2.060 -0.3222E-81 -0.1083E-80
  -2.040 -0.3216E-81 -0.1090E-80
  -2.020 -0.3211E-81 -0.1096E-80
  -2.000 -0.3205E-81 -0.1102E-80
  -1.980 -0.3199E-81 -0.1109E-80
  -1.960 -0.3194E-81 -0.1115E-80
  -1.940 -0.3188E-81 -0.1122E-80
  -1.920 -0.3182E-81 -0.1128E-80
  -1.900 -0.3177E-81 -0.1134E-80
  -1.880 -0.3171E-81 -0.1141E-80
  -1.860 -0.3166E-81 -0.1147E-80
  -1.840 -0.3160E-81 -0.1153E-80
  -1.820 -0.3154E-81 -0.1160E-80
  -1.800 -0.3149E-81 -0.1166E-80
  -1.780 -0.3143E-81 -0.1172E-80
  -1.760 -0.3138E-81 -0.1179E-80
  -1.740 -0.3132E-81 -0.1185E-80
  -1.720 -0.3127E-81 -0.1191E-80
  -1.700 -0.3121E-81 -0.1197E-80
  -1.680 -0.3116E-81 -0.1204E-80
  -1.660 -0.3110E-81 -0.1210E-80
  -1.640 -0.3105E-81 -0.1216E-80
  -1.620 -0.3099E-81 -0.1222E-80
  -1.600 -0.3094E-81 -0.1228E-80
  -1.580 -0.3088E-81 -0.1234E-80
  -1.560 -0.3083E-81 -0.1241E-80
  -1.540 -0.3077E-81 -0.1247E-80
  -1.520 -0.3072E-81 -0.1253E-80
  -1.500 -0.3066E-81 -0.1259E-80
  -1.480 -0.3061E-81 -0.1265E-80
  -1.460 -0.3055E-81 -0.1271E-80
  -1.440 -0.3050E-81 -0.1277E-80
  -1.420 -0.3044E-81 -0.1284E-80
  -1.400 -0.3039E-81 -0.1290E-80
  -1.380 -0.3033E-81 -0.1296E-80
  -1.360 -0.3028E-81 -0.1302E-80
  -1.340 -0.3022E-81 -0.1308E-80
  -1.320 -0.3017E-81 -0.1314E-80
  -1.300 -0.3012E-81 -0.1320E-80
  -1.280 -0.3006E-81 -0.1326E-80
  -1.260 -0.3001E-81 -0.1332E-80
  -1.240 -0.2995E-81 -0.1338E-80
  -1.220 -0.2990E-81 -0.1344E-80
  -1.200 -0.2985E-81 -0.1350E-80
  -1.180 -0.2979E-81 -0.1356E-80
  -1.160 -0.2974E-81 -0.1362E-80
  -1.140 -0.2969E-81 -0.1368E-80
  -1.120 -0.2963E-81 -0.1374E-80
  -1.100 -0.2958E-81 -0.1379E-80
  -1.080 -0.2952E-81 -0.1385E-80
  -1.060 -0.2947E-81 -0.1391E-80
  -1.040 -0.2942E-81 -0.1397E-80
  -1.020 -0.2936E-81 -0.1403E-80
  -1.000 -0.2931E-81 -0.1409E-80
  -0.980 -0.2926E-81 -0.1415E-80
  -0.960 -0.2920E-81 -0.1421E-80
  -0.940 -0.2915E-81 -0.1426E-80
  -0.920 -0.2910E-81 -0.1432E-80
  -0.900 -0.2905E-81 -0.1438E-80
  -0.880 -0.2899E-81 -0.1444E-80
  -0.860 -0.2894E-81 -0.1450E-80
  -0.840 -0.2889E-81 -0.1455E-80
  -0.820 -0.2883E-81 -0.1461E-80
  -0.800 -0.2878E-81 -0.1467E-80
  -0.780 -0.2873E-81 -0.1473E-80
  -0.760 -0.2868E-81 -0.1478E-80
  -0.740 -0.2862E-81 -0.1484E-80
  -0.720 -0.2857E-81 -0.1490E-80
  -0.700 -0.2852E-81 -0.1496E-80
  -0.680 -0.2847E-81 -0.1501E-80
  -0.660 -0.2842E-81 -0.1507E-80
  -0.640 -0.2836E-81 -0.1513E-80
  -0.620 -0.2831E-81 -0.1518E-80
  -0.600 -0.2826E-81 -0.1524E-80
  -0.580 -0.2821E-81 -0.1530E-80
  -0.560 -0.2816E-81 -0.1535E-80
  -0.540 -0.2810E-81 -0.1541E-80
  -0.520 -0.2805E-81 -0.1546E-80
  -0.500 -0.2800E-81 -0.1552E-80
  -0.480 -0.2795E-81 -0.1558E-80
  -0.460 -0.2790E-81 -0.1563E-80
  -0.440 -0.2785E-81 -0.1569E-80
  -0.420 -0.2779E-81 -0.1574E-80
  -0.400 -0.2774E-81 -0.1580E-80
  -0.380 -0.2769E-81 -0.1585E-80
  -0.360 -0.2764E-81 -0.1591E-80
  -0.340 -0.2759E-81 -0.1596E-80
  -0.320 -0.2754E-81 -0.1602E-80
  -0.300 -0.2749E-81 -0.1607E-80
  -0.280 -0.2744E-81 -0.1613E-80
  -0.260 -0.2738E-81 -0.1618E-80
  -0.240 -0.2733E-81 -0.1624E-80
  -0.220 -0.2728E-81 -0.1629E-80
  -0.200 -0.2723E-81 -0.1635E-80
  -0.180 -0.2718E-81 -0.1640E-80
  -0.160 -0.2713E-81 -0.1646E-80
  -0.140 -0.2708E-81 -0.1651E-80
  -0.120 -0.2703E-81 -0.1656E-80
  -0.100 -0.2698E-81 -0.1662E-80
  -0.080 -0.2693E-81 -0.1667E-80
  -0.060 -0.2688E-81 -0.1673E-80
  -0.040 -0.2683E-81 -0.1678E-80
  -0.020 -0.2678E-81 -0.1683E-80
   0.000 -0.2673E-81 -0.1689E-80
   0.020 -0.2668E-81 -0.1694E-80
   0.040 -0.2663E-81 -0.1699E-80
   0.060 -0.2658E-81 -0.1705E-80
   0.080 -0.2653E-81 -0.1710E-80
   0.100 -0.2648E-81 -0.1715E-80
   0.120 -0.2643E-81 -0.1721E-80
   0.140 -0.2638E-81 -0.1726E-80
   0.160 -0.2633E-81 -0.1731E-80
   0.180 -0.2628E-81 -0.1736E-80
   0.200 -0.2623E-81 -0.1742E-80
   0.220 -0.2618E-81 -0.1747E-80
   0.240 -0.2613E-81 -0.1752E-80
   0.260 -0.2608E-81 -0.1757E-80
   0.280 -0.2603E-81 -0.1762E-80
   0.300 -0.2598E-81 -0.1768E-80
   0.320 -0.2593E-81 -0.1773E-80
   0.340 -0.2588E-81 -0.1778E-80
   0.360 -0.2584E-81 -0.1783E-80
   0.380 -0.2579E-81 -0.1788E-80
   0.400 -0.2574E-81 -0.1794E-80
   0.420 -0.2569E-81 -0.1799E-80
   0.440 -0.2564E-81 -0.1804E-80
   0.460 -0.2559E-81 -0.1809E-80
   0.480 -0.2554E-81 -0.1814E-80
   0.500 -0.2549E-81 -0.1819E-80
   0.520 -0.2545E-81 -0.1824E-80
   0.540 -0.2540E-81 -0.1829E-80
   0.560 -0.2535E-81 -0.1834E-80
   0.580 -0.2530E-81 -0.1839E-80
   0.600 -0.2525E-81 -0.1844E-80
   0.620 -0.2520E-81 -0.1849E-80
   0.640 -0.2516E-81 -0.1855E-80
   0.660 -0.2511E-81 -0.1860E-80
   0.680 -0.2506E-81 -0.1865E-80
   0.700 -0.2501E-81 -0.1870E-80
   0.720 -0.2496E-81 -0.1875E-80
   0.740 -0.2492E-81 -0.1880E-80
   0.760 -0.2487E-81 -0.1885E-80
   0.780 -0.2482E-81 -0.1889E-80
   0.800 -0.2477E-81 -0.1894E-80
   0.820 -0.2473E-81 -0.1899E-80
   0.840 -0.2468E-81 -0.1904E-80
   0.860 -0.2463E-81 -0.1909E-80
   0.880 -0.2458E-81 -0.1914E-80
   0.900 -0.2454E-81 -0.1919E-80
   0.920 -0.2449E-81 -0.1924E-80
   0.940 -0.2444E-81 -0.1929E-80
   0.960 -0.2439E-81 -0.1934E-80
   0.980 -0.2435E-81 -0.1939E-80
   1.000 -0.2430E-81 -0.1943E-80
   1.020 -0.2425E-81 -0.1948E-80
   1.040 -0.2421E-81 -0.1953E-80
   1.060 -0.2416E-81 -0.1958E-80
   1.080 -0.2411E-81 -0.1963E-80
   1.100 -0.2407E-81 -0.1968E-80
   1.120 -0.2402E-81 -0.1972E-80
   1.140 -0.2397E-81 -0.1977E-80
   1.160 -0.2393E-81 -0.1982E-80
   1.180 -0.2388E-81 -0.1987E-80
   1.200 -0.2383E-81 -0.1992E-80
   1.220 -0.2379E-81 -0.1996E-80
   1.240 -0.2374E-81 -0.2001E-80
   1.260 -0.2369E-81 -0.2006E-80
   1.280 -0.2365E-81 -0.2011E-80
   1.300 -0.2360E-81 -0.2015E-80
   1.320 -0.2356E-81 -0.2020E-80
   1.340 -0.2351E-81 -0.2025E-80
   1.360 -0.2346E-81 -0.2029E-80
   1.380 -0.2343E-81 -0.2034E-80
   1.400 -0.2344E-81 -0.2039E-80
   1.420 -0.2387E-81 -0.2043E-80
   1.440 -0.2738E-81 -0.2049E-80
   1.460 -0.5364E-81 -0.2060E-80
   1.480 -0.2464E-80 -0.2109E-80
   1.500 -0.1644E-79 -0.2438E-80
   1.520 -0.1166E-78 -0.4770E-80
   1.540 -0.8270E-78 -0.2131E-79
   1.560 -0.5810E-77 -0.1375E-78
   1.580 -0.4039E-76 -0.9453E-78
   1.600 -0.2777E-75 -0.6500E-77
   1.620 -0.1889E-74 -0.4428E-76
   1.640 -0.1271E-73 -0.2985E-75
   1.660 -0.8460E-73 -0.1991E-74
   1.680 -0.5570E-72 -0.1313E-73
   1.700 -0.3628E-71 -0.8569E-73
   1.720 -0.2337E-70 -0.5531E-72
   1.740 -0.1489E-69 -0.3532E-71
   1.760 -0.9388E-69 -0.2231E-70
   1.780 -0.5854E-68 -0.1394E-69
   1.800 -0.3611E-67 -0.8616E-69
   1.820 -0.2203E-66 -0.5268E-68
   1.840 -0.1330E-65 -0.3186E-67
   1.860 -0.7938E-65 -0.1906E-66
   1.880 -0.4688E-64 -0.1128E-65
   1.900 -0.2738E-63 -0.6605E-65
   1.920 -0.1582E-62 -0.3825E-64
   1.940 -0.9044E-62 -0.2191E-63
   1.960 -0.5113E-61 -0.1242E-62
   1.980 -0.2860E-60 -0.6961E-62
   2.000 -0.1582E-59 -0.3860E-61
   2.020 -0.8658E-59 -0.2118E-60
   2.040 -0.4686E-58 -0.1149E-59
   2.060 -0.2509E-57 -0.6168E-59
   2.080 -0.1329E-56 -0.3275E-58
   2.100 -0.6963E-56 -0.1720E-57
   2.120 -0.3608E-55 -0.8937E-57
   2.140 -0.1850E-54 -0.4593E-56
   2.160 -0.9379E-54 -0.2335E-55
   2.180 -0.4704E-53 -0.1174E-54
   2.200 -0.2334E-52 -0.5842E-54
   2.220 -0.1145E-51 -0.2875E-53
   2.240 -0.5560E-51 -0.1400E-52
   2.260 -0.2670E-50 -0.6739E-52
   2.280 -0.1268E-49 -0.3210E-51
   2.300 -0.5957E-49 -0.1512E-50
   2.320 -0.2769E-48 -0.7050E-50
   2.340 -0.1273E-47 -0.3250E-49
   2.360 -0.5787E-47 -0.1482E-48
   2.380 -0.2603E-46 -0.6688E-48
   2.400 -0.1158E-45 -0.2984E-47
   2.420 -0.5095E-45 -0.1317E-46
   2.440 -0.2218E-44 -0.5753E-46
   2.460 -0.9548E-44 -0.2485E-45
   2.480 -0.4066E-43 -0.1062E-44
   2.500 -0.1713E-42 -0.4488E-44
   2.520 -0.7138E-42 -0.1876E-43
   2.540 -0.2942E-41 -0.7760E-43
   2.560 -0.1199E-40 -0.3174E-42
   2.580 -0.4836E-40 -0.1285E-41
   2.600 -0.1929E-39 -0.5142E-41
   2.620 -0.7609E-39 -0.2036E-40
   2.640 -0.2969E-38 -0.7975E-40
   2.660 -0.1146E-37 -0.3090E-39
   2.680 -0.4376E-37 -0.1184E-38
   2.700 -0.1653E-36 -0.4489E-38
   2.720 -0.6173E-36 -0.1683E-37
   2.740 -0.2280E-35 -0.6244E-37
   2.760 -0.8334E-35 -0.2291E-36
   2.780 -0.3012E-34 -0.8316E-36
   2.800 -0.1077E-33 -0.2986E-35
   2.820 -0.3808E-33 -0.1060E-34
   2.840 -0.1332E-32 -0.3724E-34
   2.860 -0.4609E-32 -0.1294E-33
   2.880 -0.1577E-31 -0.4448E-33
   2.900 -0.5337E-31 -0.1512E-32
   2.920 -0.1787E-30 -0.5086E-32
   2.940 -0.5916E-30 -0.1692E-31
   2.960 -0.1938E-29 -0.5567E-31
   2.980 -0.6276E-29 -0.1812E-30
   3.000 -0.2011E-28 -0.5834E-30
   3.020 -0.6372E-28 -0.1858E-29
   3.040 -0.1997E-27 -0.5852E-29
   3.060 -0.6191E-27 -0.1823E-28
   3.080 -0.1898E-26 -0.5620E-28
   3.100 -0.5756E-26 -0.1713E-27
   3.120 -0.1727E-25 -0.5166E-27
   3.140 -0.5122E-25 -0.1541E-26
   3.160 -0.1503E-24 -0.4546E-26
   3.180 -0.4361E-24 -0.1327E-25
   3.200 -0.1252E-23 -0.3830E-25
   3.220 -0.3553E-23 -0.1094E-24
   3.240 -0.9974E-23 -0.3088E-24
   3.260 -0.2769E-22 -0.8627E-24
   3.280 -0.7605E-22 -0.2384E-23
   3.300 -0.2066E-21 -0.6515E-23
   3.320 -0.5549E-21 -0.1761E-22
   3.340 -0.1474E-20 -0.4709E-22
   3.360 -0.3873E-20 -0.1245E-21
   3.380 -0.1006E-19 -0.3258E-21
   3.400 -0.2586E-19 -0.8430E-21
   3.420 -0.6573E-19 -0.2158E-20
   3.440 -0.1652E-18 -0.5462E-20
   3.460 -0.4106E-18 -0.1367E-19
   3.480 -0.1009E-17 -0.3386E-19
   3.500 -0.2454E-17 -0.8295E-19
   3.520 -0.5901E-17 -0.2010E-18
   3.540 -0.1403E-16 -0.4815E-18
   3.560 -0.3299E-16 -0.1141E-17
   3.580 -0.7670E-16 -0.2675E-17
   3.600 -0.1764E-15 -0.6203E-17
   3.620 -0.4011E-15 -0.1422E-16
   3.640 -0.9019E-15 -0.3226E-16
   3.660 -0.2006E-14 -0.7237E-16
   3.680 -0.4410E-14 -0.1606E-15
   3.700 -0.9589E-14 -0.3524E-15
   3.720 -0.2062E-13 -0.7647E-15
   3.740 -0.4384E-13 -0.1641E-14
   3.760 -0.9216E-13 -0.3485E-14
   3.780 -0.1916E-12 -0.7317E-14
   3.800 -0.3939E-12 -0.1519E-13
   3.820 -0.8005E-12 -0.3120E-13
   3.840 -0.1609E-11 -0.6338E-13
   3.860 -0.3197E-11 -0.1273E-12
   3.880 -0.6281E-11 -0.2529E-12
   3.900 -0.1220E-10 -0.4970E-12
   3.920 -0.2344E-10 -0.9657E-12
   3.940 -0.4451E-10 -0.1856E-11
   3.960 -0.8356E-10 -0.3527E-11
   3.980 -0.1551E-09 -0.6629E-11
   4.000 -0.2846E-09 -0.1232E-10
   4.020 -0.5164E-09 -0.2265E-10
   4.040 -0.9262E-09 -0.4117E-10
   4.060 -0.1642E-08 -0.7402E-10
   4.080 -0.2879E-08 -0.1316E-09
   4.100 -0.4988E-08 -0.2314E-09
   4.120 -0.8545E-08 -0.4023E-09
   4.140 -0.1447E-07 -0.6917E-09
   4.160 -0.2422E-07 -0.1176E-08
   4.180 -0.4007E-07 -0.1977E-08
   4.200 -0.6554E-07 -0.3288E-08
   4.220 -0.1060E-06 -0.5407E-08
   4.240 -0.1693E-06 -0.8793E-08
   4.260 -0.2674E-06 -0.1414E-07
   4.280 -0.4175E-06 -0.2249E-07
   4.300 -0.6442E-06 -0.3537E-07
   4.320 -0.9825E-06 -0.5502E-07
   4.340 -0.1481E-05 -0.8465E-07
   4.360 -0.2207E-05 -0.1288E-06
   4.380 -0.3250E-05 -0.1938E-06
   4.400 -0.4732E-05 -0.2884E-06
   4.420 -0.6809E-05 -0.4246E-06
   4.440 -0.9686E-05 -0.6183E-06
   4.460 -0.1362E-04 -0.8907E-06
   4.480 -0.1893E-04 -0.1269E-05
   4.500 -0.2602E-04 -0.1790E-05
   4.520 -0.3536E-04 -0.2497E-05
   4.540 -0.4752E-04 -0.3448E-05
   4.560 -0.6315E-04 -0.4710E-05
   4.580 -0.8299E-04 -0.6370E-05
   4.600 -0.1079E-03 -0.8528E-05
   4.620 -0.1387E-03 -0.1130E-04
   4.640 -0.1765E-03 -0.1483E-04
   4.660 -0.2222E-03 -0.1928E-04
   4.680 -0.2769E-03 -0.2482E-04
   4.700 -0.3413E-03 -0.3164E-04
   4.720 -0.4163E-03 -0.3997E-04
   4.740 -0.5025E-03 -0.5002E-04
   4.760 -0.5999E-03 -0.6201E-04
   4.780 -0.7081E-03 -0.7618E-04
   4.800 -0.8260E-03 -0.9270E-04
   4.820 -0.9513E-03 -0.1117E-03
   4.840 -0.1080E-02 -0.1333E-03
   4.860 -0.1207E-02 -0.1575E-03
   4.880 -0.1325E-02 -0.1840E-03
   4.900 -0.1422E-02 -0.2124E-03
   4.920 -0.1485E-02 -0.2421E-03
   4.940 -0.1495E-02 -0.2720E-03
   4.960 -0.1432E-02 -0.3007E-03
   4.980 -0.1269E-02 -0.3260E-03
   5.000 -0.9760E-03 -0.3456E-03
   5.020 -0.5197E-03 -0.3560E-03
   5.040  0.1356E-03 -0.3532E-03
   5.060  0.1026E-02 -0.3327E-03
   5.080  0.2187E-02 -0.2890E-03
   5.100  0.3648E-02 -0.2160E-03
   5.120  0.5435E-02 -0.1073E-03
   5.140  0.7559E-02  0.4387E-04
   5.160  0.1002E-01  0.2443E-03
   5.180  0.1281E-01  0.5005E-03
   5.200  0.1588E-01  0.8181E-03
   5.220  0.1919E-01  0.1202E-02
   5.240  0.2267E-01  0.1655E-02
   5.260  0.2624E-01  0.2180E-02
   5.280  0.2978E-01  0.2776E-02
   5.300  0.3321E-01  0.3440E-02
   5.320  0.3641E-01  0.4168E-02
   5.340  0.3930E-01  0.4954E-02
   5.360  0.4178E-01  0.5790E-02
   5.380  0.4380E-01  0.6666E-02
   5.400  0.4532E-01  0.7572E-02
   5.420  0.4635E-01  0.8499E-02
   5.440  0.4692E-01  0.9437E-02
   5.460  0.4711E-01  0.1038E-01
   5.480  0.4702E-01  0.1132E-01
   5.500  0.4679E-01  0.1226E-01
   5.520  0.4658E-01  0.1319E-01
   5.540  0.4654E-01  0.1412E-01
   5.560  0.4686E-01  0.1506E-01
   5.580  0.4769E-01  0.1601E-01
   5.600  0.4918E-01  0.1699E-01
   5.620  0.5144E-01  0.1802E-01
   5.640  0.5454E-01  0.1911E-01
   5.660  0.5851E-01  0.2028E-01
   5.680  0.6334E-01  0.2155E-01
   5.700  0.6894E-01  0.2293E-01
   5.720  0.7520E-01  0.2443E-01
   5.740  0.8193E-01  0.2607E-01
   5.760  0.8891E-01  0.2785E-01
   5.780  0.9589E-01  0.2977E-01
   5.800  0.1026E+00  0.3182E-01
   5.820  0.1087E+00  0.3399E-01
   5.840  0.1140E+00  0.3627E-01
   5.860  0.1181E+00  0.3863E-01
   5.880  0.1208E+00  0.4105E-01
   5.900  0.1221E+00  0.4349E-01
   5.920  0.1217E+00  0.4593E-01
   5.940  0.1196E+00  0.4832E-01
   5.960  0.1159E+00  0.5064E-01
   5.980  0.1108E+00  0.5285E-01
   6.000  0.1044E+00  0.5494E-01
   6.020  0.9699E-01  0.5688E-01
   6.040  0.8902E-01  0.5866E-01
   6.060  0.8083E-01  0.6028E-01
   6.080  0.7285E-01  0.6173E-01
   6.100  0.6549E-01  0.6304E-01
   6.120  0.5912E-01  0.6422E-01
   6.140  0.5412E-01  0.6531E-01
   6.160  0.5075E-01  0.6632E-01
   6.180  0.4927E-01  0.6731E-01
   6.200  0.4982E-01  0.6830E-01
   6.220  0.5251E-01  0.6935E-01
   6.240  0.5737E-01  0.7050E-01
   6.260  0.6441E-01  0.7179E-01
   6.280  0.7360E-01  0.7326E-01
   6.300  0.8492E-01  0.7496E-01
   6.320  0.9837E-01  0.7693E-01
   6.340  0.1140E+00  0.7921E-01
   6.360  0.1319E+00  0.8184E-01
   6.380  0.1522E+00  0.8489E-01
   6.400  0.1753E+00  0.8839E-01
   6.420  0.2014E+00  0.9242E-01
   6.440  0.2309E+00  0.9704E-01
   6.460  0.2644E+00  0.1023E+00
   6.480  0.3022E+00  0.1084E+00
   6.500  0.3450E+00  0.1153E+00
   6.520  0.3932E+00  0.1231E+00
   6.540  0.4472E+00  0.1321E+00
   6.560  0.5075E+00  0.1422E+00
   6.580  0.5741E+00  0.1537E+00
   6.600  0.6474E+00  0.1667E+00
   6.620  0.7273E+00  0.1812E+00
   6.640  0.8137E+00  0.1975E+00
   6.660  0.9064E+00  0.2156E+00
   6.680  0.1005E+01  0.2357E+00
   6.700  0.1110E+01  0.2579E+00
   6.720  0.1219E+01  0.2823E+00
   6.740  0.1334E+01  0.3090E+00
   6.760  0.1453E+01  0.3380E+00
   6.780  0.1576E+01  0.3696E+00
   6.800  0.1703E+01  0.4036E+00
   6.820  0.1833E+01  0.4403E+00
   6.840  0.1965E+01  0.4796E+00
   6.860  0.2099E+01  0.5216E+00
   6.880  0.2234E+01  0.5662E+00
   6.900  0.2368E+01  0.6136E+00
   6.920  0.2501E+01  0.6636E+00
   6.940  0.2630E+01  0.7162E+00
   6.960  0.2755E+01  0.7713E+00
   6.980  0.2872E+01  0.8288E+00
   7.000  0.2981E+01  0.8884E+00
   7.020  0.3079E+01  0.9500E+00
   7.040  0.3163E+01  0.1013E+01
   7.060  0.3234E+01  0.1078E+01
