#  E (eV)   dos(E)     Int dos(E) EFermi =   13.060 eV
  -5.000 -0.4118E-81 -0.8237E-83
  -4.980 -0.4112E-81 -0.1646E-82
  -4.960 -0.4105E-81 -0.2467E-82
  -4.940 -0.4099E-81 -0.3287E-82
  -4.920 -0.4092E-81 -0.4105E-82
  -4.900 -0.4086E-81 -0.4922E-82
  -4.880 -0.4079E-81 -0.5738E-82
  -4.860 -0.4073E-81 -0.6553E-82
  -4.840 -0.4066E-81 -0.7366E-82
  -4.820 -0.4060E-81 -0.8178E-82
  -4.800 -0.4053E-81 -0.8988E-82
  -4.780 -0.4047E-81 -0.9798E-82
  -4.760 -0.4040E-81 -0.1061E-81
  -4.740 -0.4034E-81 -0.1141E-81
  -4.720 -0.4027E-81 -0.1222E-81
  -4.700 -0.4021E-81 -0.1302E-81
  -4.680 -0.4014E-81 -0.1382E-81
  -4.660 -0.4008E-81 -0.1463E-81
  -4.640 -0.4001E-81 -0.1543E-81
  -4.620 -0.3995E-81 -0.1623E-81
  -4.600 -0.3988E-81 -0.1702E-81
  -4.580 -0.3982E-81 -0.1782E-81
  -4.560 -0.3975E-81 -0.1861E-81
  -4.540 -0.3969E-81 -0.1941E-81
  -4.520 -0.3963E-81 -0.2020E-81
  -4.500 -0.3956E-81 -0.2099E-81
  -4.480 -0.3950E-81 -0.2178E-81
  -4.460 -0.3943E-81 -0.2257E-81
  -4.440 -0.3937E-81 -0.2336E-81
  -4.420 -0.3931E-81 -0.2414E-81
  -4.400 -0.3924E-81 -0.2493E-81
  -4.380 -0.3918E-81 -0.2571E-81
  -4.360 -0.3912E-81 -0.2650E-81
  -4.340 -0.3905E-81 -0.2728E-81
  -4.320 -0.3899E-81 -0.2806E-81
  -4.300 -0.3893E-81 -0.2883E-81
  -4.280 -0.3886E-81 -0.2961E-81
  -4.260 -0.3880E-81 -0.3039E-81
  -4.240 -0.3874E-81 -0.3116E-81
  -4.220 -0.3867E-81 -0.3194E-81
  -4.200 -0.3861E-81 -0.3271E-81
  -4.180 -0.3855E-81 -0.3348E-81
  -4.160 -0.3848E-81 -0.3425E-81
  -4.140 -0.3842E-81 -0.3502E-81
  -4.120 -0.3836E-81 -0.3578E-81
  -4.100 -0.3829E-81 -0.3655E-81
  -4.080 -0.3823E-81 -0.3731E-81
  -4.060 -0.3817E-81 -0.3808E-81
  -4.040 -0.3811E-81 -0.3884E-81
  -4.020 -0.3804E-81 -0.3960E-81
  -4.000 -0.3798E-81 -0.4036E-81
  -3.980 -0.3792E-81 -0.4112E-81
  -3.960 -0.3786E-81 -0.4188E-81
  -3.940 -0.3779E-81 -0.4263E-81
  -3.920 -0.3773E-81 -0.4339E-81
  -3.900 -0.3767E-81 -0.4414E-81
  -3.880 -0.3761E-81 -0.4489E-81
  -3.860 -0.3754E-81 -0.4564E-81
  -3.840 -0.3748E-81 -0.4639E-81
  -3.820 -0.3742E-81 -0.4714E-81
  -3.800 -0.3736E-81 -0.4789E-81
  -3.780 -0.3730E-81 -0.4863E-81
  -3.760 -0.3723E-81 -0.4938E-81
  -3.740 -0.3717E-81 -0.5012E-81
  -3.720 -0.3711E-81 -0.5086E-81
  -3.700 -0.3705E-81 -0.5161E-81
  -3.680 -0.3699E-81 -0.5235E-81
  -3.660 -0.3693E-81 -0.5308E-81
  -3.640 -0.3687E-81 -0.5382E-81
  -3.620 -0.3680E-81 -0.5456E-81
  -3.600 -0.3674E-81 -0.5529E-81
  -3.580 -0.3668E-81 -0.5603E-81
  -3.560 -0.3662E-81 -0.5676E-81
  -3.540 -0.3656E-81 -0.5749E-81
  -3.520 -0.3650E-81 -0.5822E-81
  -3.500 -0.3644E-81 -0.5895E-81
  -3.480 -0.3638E-81 -0.5968E-81
  -3.460 -0.3632E-81 -0.6040E-81
  -3.440 -0.3625E-81 -0.6113E-81
  -3.420 -0.3619E-81 -0.6185E-81
  -3.400 -0.3613E-81 -0.6257E-81
  -3.380 -0.3607E-81 -0.6329E-81
  -3.360 -0.3601E-81 -0.6402E-81
  -3.340 -0.3595E-81 -0.6473E-81
  -3.320 -0.3589E-81 -0.6545E-81
  -3.300 -0.3583E-81 -0.6617E-81
  -3.280 -0.3577E-81 -0.6688E-81
  -3.260 -0.3571E-81 -0.6760E-81
  -3.240 -0.3565E-81 -0.6831E-81
  -3.220 -0.3559E-81 -0.6902E-81
  -3.200 -0.3553E-81 -0.6973E-81
  -3.180 -0.3547E-81 -0.7044E-81
  -3.160 -0.3541E-81 -0.7115E-81
  -3.140 -0.3535E-81 -0.7186E-81
  -3.120 -0.3529E-81 -0.7256E-81
  -3.100 -0.3523E-81 -0.7327E-81
  -3.080 -0.3517E-81 -0.7397E-81
  -3.060 -0.3511E-81 -0.7467E-81
  -3.040 -0.3505E-81 -0.7538E-81
  -3.020 -0.3499E-81 -0.7608E-81
  -3.000 -0.3493E-81 -0.7677E-81
  -2.980 -0.3487E-81 -0.7747E-81
  -2.960 -0.3481E-81 -0.7817E-81
  -2.940 -0.3475E-81 -0.7886E-81
  -2.920 -0.3470E-81 -0.7956E-81
  -2.900 -0.3464E-81 -0.8025E-81
  -2.880 -0.3458E-81 -0.8094E-81
  -2.860 -0.3452E-81 -0.8163E-81
  -2.840 -0.3446E-81 -0.8232E-81
  -2.820 -0.3440E-81 -0.8301E-81
  -2.800 -0.3434E-81 -0.8370E-81
  -2.780 -0.3428E-81 -0.8438E-81
  -2.760 -0.3422E-81 -0.8507E-81
  -2.740 -0.3417E-81 -0.8575E-81
  -2.720 -0.3411E-81 -0.8643E-81
  -2.700 -0.3405E-81 -0.8711E-81
  -2.680 -0.3399E-81 -0.8779E-81
  -2.660 -0.3393E-81 -0.8847E-81
  -2.640 -0.3387E-81 -0.8915E-81
  -2.620 -0.3382E-81 -0.8982E-81
  -2.600 -0.3376E-81 -0.9050E-81
  -2.580 -0.3370E-81 -0.9117E-81
  -2.560 -0.3364E-81 -0.9185E-81
  -2.540 -0.3358E-81 -0.9252E-81
  -2.520 -0.3352E-81 -0.9319E-81
  -2.500 -0.3347E-81 -0.9386E-81
  -2.480 -0.3341E-81 -0.9453E-81
  -2.460 -0.3335E-81 -0.9519E-81
  -2.440 -0.3329E-81 -0.9586E-81
  -2.420 -0.3324E-81 -0.9652E-81
  -2.400 -0.3318E-81 -0.9719E-81
  -2.380 -0.3312E-81 -0.9785E-81
  -2.360 -0.3306E-81 -0.9851E-81
  -2.340 -0.3301E-81 -0.9917E-81
  -2.320 -0.3295E-81 -0.9983E-81
  -2.300 -0.3289E-81 -0.1005E-80
  -2.280 -0.3283E-81 -0.1011E-80
  -2.260 -0.3278E-81 -0.1018E-80
  -2.240 -0.3272E-81 -0.1025E-80
  -2.220 -0.3266E-81 -0.1031E-80
  -2.200 -0.3261E-81 -0.1038E-80
  -2.180 -0.3255E-81 -0.1044E-80
  -2.160 -0.3249E-81 -0.1051E-80
  -2.140 -0.3244E-81 -0.1057E-80
  -2.120 -0.3238E-81 -0.1064E-80
  -2.100 -0.3232E-81 -0.1070E-80
  -2.080 -0.3227E-81 -0.1076E-80
  -2.060 -0.3221E-81 -0.1083E-80
  -2.040 -0.3215E-81 -0.1089E-80
  -2.020 -0.3210E-81 -0.1096E-80
  -2.000 -0.3204E-81 -0.1102E-80
  -1.980 -0.3198E-81 -0.1109E-80
  -1.960 -0.3193E-81 -0.1115E-80
  -1.940 -0.3187E-81 -0.1121E-80
  -1.920 -0.3182E-81 -0.1128E-80
  -1.900 -0.3176E-81 -0.1134E-80
  -1.880 -0.3170E-81 -0.1140E-80
  -1.860 -0.3165E-81 -0.1147E-80
  -1.840 -0.3159E-81 -0.1153E-80
  -1.820 -0.3154E-81 -0.1159E-80
  -1.800 -0.3148E-81 -0.1166E-80
  -1.780 -0.3142E-81 -0.1172E-80
  -1.760 -0.3137E-81 -0.1178E-80
  -1.740 -0.3131E-81 -0.1184E-80
  -1.720 -0.3126E-81 -0.1191E-80
  -1.700 -0.3120E-81 -0.1197E-80
  -1.680 -0.3115E-81 -0.1203E-80
  -1.660 -0.3109E-81 -0.1209E-80
  -1.640 -0.3104E-81 -0.1216E-80
  -1.620 -0.3098E-81 -0.1222E-80
  -1.600 -0.3093E-81 -0.1228E-80
  -1.580 -0.3087E-81 -0.1234E-80
  -1.560 -0.3082E-81 -0.1240E-80
  -1.540 -0.3076E-81 -0.1246E-80
  -1.520 -0.3071E-81 -0.1253E-80
  -1.500 -0.3065E-81 -0.1259E-80
  -1.480 -0.3060E-81 -0.1265E-80
  -1.460 -0.3054E-81 -0.1271E-80
  -1.440 -0.3049E-81 -0.1277E-80
  -1.420 -0.3043E-81 -0.1283E-80
  -1.400 -0.3038E-81 -0.1289E-80
  -1.380 -0.3032E-81 -0.1295E-80
  -1.360 -0.3027E-81 -0.1301E-80
  -1.340 -0.3022E-81 -0.1307E-80
  -1.320 -0.3016E-81 -0.1313E-80
  -1.300 -0.3011E-81 -0.1319E-80
  -1.280 -0.3005E-81 -0.1325E-80
  -1.260 -0.3000E-81 -0.1331E-80
  -1.240 -0.2995E-81 -0.1337E-80
  -1.220 -0.2989E-81 -0.1343E-80
  -1.200 -0.2984E-81 -0.1349E-80
  -1.180 -0.2978E-81 -0.1355E-80
  -1.160 -0.2973E-81 -0.1361E-80
  -1.140 -0.2968E-81 -0.1367E-80
  -1.120 -0.2962E-81 -0.1373E-80
  -1.100 -0.2957E-81 -0.1379E-80
  -1.080 -0.2952E-81 -0.1385E-80
  -1.060 -0.2946E-81 -0.1391E-80
  -1.040 -0.2941E-81 -0.1397E-80
  -1.020 -0.2936E-81 -0.1403E-80
  -1.000 -0.2930E-81 -0.1408E-80
  -0.980 -0.2925E-81 -0.1414E-80
  -0.960 -0.2920E-81 -0.1420E-80
  -0.940 -0.2914E-81 -0.1426E-80
  -0.920 -0.2909E-81 -0.1432E-80
  -0.900 -0.2904E-81 -0.1438E-80
  -0.880 -0.2898E-81 -0.1443E-80
  -0.860 -0.2893E-81 -0.1449E-80
  -0.840 -0.2888E-81 -0.1455E-80
  -0.820 -0.2883E-81 -0.1461E-80
  -0.800 -0.2877E-81 -0.1467E-80
  -0.780 -0.2872E-81 -0.1472E-80
  -0.760 -0.2867E-81 -0.1478E-80
  -0.740 -0.2862E-81 -0.1484E-80
  -0.720 -0.2856E-81 -0.1489E-80
  -0.700 -0.2851E-81 -0.1495E-80
  -0.680 -0.2846E-81 -0.1501E-80
  -0.660 -0.2841E-81 -0.1507E-80
  -0.640 -0.2835E-81 -0.1512E-80
  -0.620 -0.2830E-81 -0.1518E-80
  -0.600 -0.2825E-81 -0.1523E-80
  -0.580 -0.2820E-81 -0.1529E-80
  -0.560 -0.2815E-81 -0.1535E-80
  -0.540 -0.2809E-81 -0.1540E-80
  -0.520 -0.2804E-81 -0.1546E-80
  -0.500 -0.2799E-81 -0.1552E-80
  -0.480 -0.2794E-81 -0.1557E-80
  -0.460 -0.2789E-81 -0.1563E-80
  -0.440 -0.2784E-81 -0.1568E-80
  -0.420 -0.2779E-81 -0.1574E-80
  -0.400 -0.2773E-81 -0.1579E-80
  -0.380 -0.2768E-81 -0.1585E-80
  -0.360 -0.2763E-81 -0.1590E-80
  -0.340 -0.2758E-81 -0.1596E-80
  -0.320 -0.2753E-81 -0.1602E-80
  -0.300 -0.2748E-81 -0.1607E-80
  -0.280 -0.2743E-81 -0.1612E-80
  -0.260 -0.2738E-81 -0.1618E-80
  -0.240 -0.2733E-81 -0.1623E-80
  -0.220 -0.2727E-81 -0.1629E-80
  -0.200 -0.2722E-81 -0.1634E-80
  -0.180 -0.2717E-81 -0.1640E-80
  -0.160 -0.2712E-81 -0.1645E-80
  -0.140 -0.2707E-81 -0.1651E-80
  -0.120 -0.2702E-81 -0.1656E-80
  -0.100 -0.2697E-81 -0.1661E-80
  -0.080 -0.2692E-81 -0.1667E-80
  -0.060 -0.2687E-81 -0.1672E-80
  -0.040 -0.2682E-81 -0.1678E-80
  -0.020 -0.2677E-81 -0.1683E-80
   0.000 -0.2672E-81 -0.1688E-80
   0.020 -0.2667E-81 -0.1694E-80
   0.040 -0.2662E-81 -0.1699E-80
   0.060 -0.2657E-81 -0.1704E-80
   0.080 -0.2652E-81 -0.1709E-80
   0.100 -0.2647E-81 -0.1715E-80
   0.120 -0.2642E-81 -0.1720E-80
   0.140 -0.2637E-81 -0.1725E-80
   0.160 -0.2632E-81 -0.1731E-80
   0.180 -0.2627E-81 -0.1736E-80
   0.200 -0.2622E-81 -0.1741E-80
   0.220 -0.2617E-81 -0.1746E-80
   0.240 -0.2612E-81 -0.1752E-80
   0.260 -0.2607E-81 -0.1757E-80
   0.280 -0.2602E-81 -0.1762E-80
   0.300 -0.2597E-81 -0.1767E-80
   0.320 -0.2593E-81 -0.1772E-80
   0.340 -0.2588E-81 -0.1778E-80
   0.360 -0.2583E-81 -0.1783E-80
   0.380 -0.2578E-81 -0.1788E-80
   0.400 -0.2573E-81 -0.1793E-80
   0.420 -0.2568E-81 -0.1798E-80
   0.440 -0.2563E-81 -0.1803E-80
   0.460 -0.2558E-81 -0.1808E-80
   0.480 -0.2553E-81 -0.1813E-80
   0.500 -0.2549E-81 -0.1819E-80
   0.520 -0.2544E-81 -0.1824E-80
   0.540 -0.2539E-81 -0.1829E-80
   0.560 -0.2534E-81 -0.1834E-80
   0.580 -0.2529E-81 -0.1839E-80
   0.600 -0.2524E-81 -0.1844E-80
   0.620 -0.2520E-81 -0.1849E-80
   0.640 -0.2515E-81 -0.1854E-80
   0.660 -0.2510E-81 -0.1859E-80
   0.680 -0.2505E-81 -0.1864E-80
   0.700 -0.2500E-81 -0.1869E-80
   0.720 -0.2496E-81 -0.1874E-80
   0.740 -0.2491E-81 -0.1879E-80
   0.760 -0.2486E-81 -0.1884E-80
   0.780 -0.2481E-81 -0.1889E-80
   0.800 -0.2476E-81 -0.1894E-80
   0.820 -0.2472E-81 -0.1899E-80
   0.840 -0.2467E-81 -0.1904E-80
   0.860 -0.2462E-81 -0.1909E-80
   0.880 -0.2457E-81 -0.1914E-80
   0.900 -0.2453E-81 -0.1919E-80
   0.920 -0.2448E-81 -0.1923E-80
   0.940 -0.2443E-81 -0.1928E-80
   0.960 -0.2439E-81 -0.1933E-80
   0.980 -0.2434E-81 -0.1938E-80
   1.000 -0.2429E-81 -0.1943E-80
   1.020 -0.2424E-81 -0.1948E-80
   1.040 -0.2420E-81 -0.1953E-80
   1.060 -0.2415E-81 -0.1957E-80
   1.080 -0.2410E-81 -0.1962E-80
   1.100 -0.2406E-81 -0.1967E-80
   1.120 -0.2401E-81 -0.1972E-80
   1.140 -0.2396E-81 -0.1977E-80
   1.160 -0.2392E-81 -0.1981E-80
   1.180 -0.2387E-81 -0.1986E-80
   1.200 -0.2382E-81 -0.1991E-80
   1.220 -0.2378E-81 -0.1996E-80
   1.240 -0.2373E-81 -0.2000E-80
   1.260 -0.2369E-81 -0.2005E-80
   1.280 -0.2364E-81 -0.2010E-80
   1.300 -0.2359E-81 -0.2015E-80
   1.320 -0.2355E-81 -0.2019E-80
   1.340 -0.2350E-81 -0.2024E-80
   1.360 -0.2346E-81 -0.2029E-80
   1.380 -0.2341E-81 -0.2033E-80
   1.400 -0.2338E-81 -0.2038E-80
   1.420 -0.2344E-81 -0.2043E-80
   1.440 -0.2416E-81 -0.2048E-80
   1.460 -0.2979E-81 -0.2054E-80
   1.480 -0.7134E-81 -0.2068E-80
   1.500 -0.3729E-80 -0.2142E-80
   1.520 -0.2535E-79 -0.2649E-80
   1.540 -0.1787E-78 -0.6224E-80
   1.560 -0.1255E-77 -0.3132E-79
   1.580 -0.8724E-77 -0.2058E-78
   1.600 -0.6000E-76 -0.1406E-77
   1.620 -0.4082E-75 -0.9569E-77
   1.640 -0.2747E-74 -0.6451E-76
   1.660 -0.1829E-73 -0.4303E-75
   1.680 -0.1204E-72 -0.2839E-74
   1.700 -0.7845E-72 -0.1853E-73
   1.720 -0.5055E-71 -0.1196E-72
   1.740 -0.3222E-70 -0.7641E-72
   1.760 -0.2032E-69 -0.4828E-71
   1.780 -0.1267E-68 -0.3017E-70
   1.800 -0.7818E-68 -0.1865E-69
   1.820 -0.4772E-67 -0.1141E-68
   1.840 -0.2881E-66 -0.6902E-68
   1.860 -0.1720E-65 -0.4131E-67
   1.880 -0.1016E-64 -0.2446E-66
   1.900 -0.5939E-64 -0.1432E-65
   1.920 -0.3433E-63 -0.8298E-65
   1.940 -0.1963E-62 -0.4755E-64
   1.960 -0.1110E-61 -0.2696E-63
   1.980 -0.6211E-61 -0.1512E-62
   2.000 -0.3438E-60 -0.8387E-62
   2.020 -0.1882E-59 -0.4603E-61
   2.040 -0.1019E-58 -0.2499E-60
   2.060 -0.5460E-58 -0.1342E-59
   2.080 -0.2893E-57 -0.7128E-59
   2.100 -0.1517E-56 -0.3746E-58
   2.120 -0.7863E-56 -0.1947E-57
   2.140 -0.4033E-55 -0.1001E-56
   2.160 -0.2046E-54 -0.5094E-56
   2.180 -0.1027E-53 -0.2563E-55
   2.200 -0.5098E-53 -0.1276E-54
   2.220 -0.2504E-52 -0.6283E-54
   2.240 -0.1216E-51 -0.3061E-53
   2.260 -0.5844E-51 -0.1475E-52
   2.280 -0.2778E-50 -0.7031E-52
   2.300 -0.1306E-49 -0.3315E-51
   2.320 -0.6075E-49 -0.1547E-50
   2.340 -0.2795E-48 -0.7136E-50
   2.360 -0.1272E-47 -0.3258E-49
   2.380 -0.5726E-47 -0.1471E-48
   2.400 -0.2550E-46 -0.6571E-48
   2.420 -0.1123E-45 -0.2904E-47
   2.440 -0.4895E-45 -0.1269E-46
   2.460 -0.2110E-44 -0.5489E-46
   2.480 -0.8995E-44 -0.2348E-45
   2.500 -0.3794E-43 -0.9935E-45
   2.520 -0.1583E-42 -0.4159E-44
   2.540 -0.6532E-42 -0.1722E-43
   2.560 -0.2667E-41 -0.7056E-43
   2.580 -0.1077E-40 -0.2859E-42
   2.600 -0.4302E-40 -0.1146E-41
   2.620 -0.1700E-39 -0.4546E-41
   2.640 -0.6644E-39 -0.1783E-40
   2.660 -0.2569E-38 -0.6921E-40
   2.680 -0.9825E-38 -0.2657E-39
   2.700 -0.3717E-37 -0.1009E-38
   2.720 -0.1391E-36 -0.3792E-38
   2.740 -0.5150E-36 -0.1409E-37
   2.760 -0.1886E-35 -0.5182E-37
   2.780 -0.6833E-35 -0.1885E-36
   2.800 -0.2449E-34 -0.6782E-36
   2.820 -0.8680E-34 -0.2414E-35
   2.840 -0.3044E-33 -0.8502E-35
   2.860 -0.1056E-32 -0.2962E-34
   2.880 -0.3623E-32 -0.1021E-33
   2.900 -0.1230E-31 -0.3480E-33
   2.920 -0.4129E-31 -0.1174E-32
   2.940 -0.1371E-30 -0.3917E-32
   2.960 -0.4506E-30 -0.1293E-31
   2.980 -0.1465E-29 -0.4222E-31
   3.000 -0.4709E-29 -0.1364E-30
   3.020 -0.1498E-28 -0.4360E-30
   3.040 -0.4713E-28 -0.1379E-29
   3.060 -0.1467E-27 -0.4312E-29
   3.080 -0.4517E-27 -0.1335E-28
   3.100 -0.1376E-26 -0.4086E-28
   3.120 -0.4145E-26 -0.1238E-27
   3.140 -0.1236E-25 -0.3709E-27
   3.160 -0.3643E-25 -0.1100E-26
   3.180 -0.1063E-24 -0.3225E-26
   3.200 -0.3067E-24 -0.9358E-26
   3.220 -0.8754E-24 -0.2687E-25
   3.240 -0.2472E-23 -0.7631E-25
   3.260 -0.6906E-23 -0.2144E-24
   3.280 -0.1909E-22 -0.5962E-24
   3.300 -0.5219E-22 -0.1640E-23
   3.320 -0.1412E-21 -0.4463E-23
   3.340 -0.3777E-21 -0.1202E-22
   3.360 -0.9998E-21 -0.3201E-22
   3.380 -0.2618E-20 -0.8438E-22
   3.400 -0.6783E-20 -0.2200E-21
   3.420 -0.1738E-19 -0.5677E-21
   3.440 -0.4408E-19 -0.1449E-20
   3.460 -0.1106E-18 -0.3661E-20
   3.480 -0.2744E-18 -0.9149E-20
   3.500 -0.6737E-18 -0.2262E-19
   3.520 -0.1636E-17 -0.5535E-19
   3.540 -0.3932E-17 -0.1340E-18
   3.560 -0.9348E-17 -0.3210E-18
   3.580 -0.2199E-16 -0.7607E-18
   3.600 -0.5116E-16 -0.1784E-17
   3.620 -0.1178E-15 -0.4139E-17
   3.640 -0.2682E-15 -0.9504E-17
   3.660 -0.6044E-15 -0.2159E-16
   3.680 -0.1347E-14 -0.4854E-16
   3.700 -0.2971E-14 -0.1080E-15
   3.720 -0.6483E-14 -0.2376E-15
   3.740 -0.1400E-13 -0.5175E-15
   3.760 -0.2989E-13 -0.1115E-14
   3.780 -0.6315E-13 -0.2378E-14
   3.800 -0.1320E-12 -0.5019E-14
   3.820 -0.2730E-12 -0.1048E-13
   3.840 -0.5586E-12 -0.2165E-13
   3.860 -0.1131E-11 -0.4427E-13
   3.880 -0.2265E-11 -0.8956E-13
   3.900 -0.4486E-11 -0.1793E-12
   3.920 -0.8794E-11 -0.3552E-12
   3.940 -0.1705E-10 -0.6962E-12
   3.960 -0.3271E-10 -0.1350E-11
   3.980 -0.6208E-10 -0.2592E-11
   4.000 -0.1166E-09 -0.4923E-11
   4.020 -0.2165E-09 -0.9252E-11
   4.040 -0.3977E-09 -0.1721E-10
   4.060 -0.7229E-09 -0.3166E-10
   4.080 -0.1300E-08 -0.5766E-10
   4.100 -0.2312E-08 -0.1039E-09
   4.120 -0.4067E-08 -0.1852E-09
   4.140 -0.7077E-08 -0.3268E-09
   4.160 -0.1218E-07 -0.5704E-09
   4.180 -0.2074E-07 -0.9853E-09
   4.200 -0.3493E-07 -0.1684E-08
   4.220 -0.5818E-07 -0.2847E-08
   4.240 -0.9584E-07 -0.4764E-08
   4.260 -0.1561E-06 -0.7887E-08
   4.280 -0.2516E-06 -0.1292E-07
   4.300 -0.4008E-06 -0.2093E-07
   4.320 -0.6315E-06 -0.3356E-07
   4.340 -0.9839E-06 -0.5324E-07
   4.360 -0.1516E-05 -0.8356E-07
   4.380 -0.2309E-05 -0.1297E-06
   4.400 -0.3476E-05 -0.1993E-06
   4.420 -0.5175E-05 -0.3028E-06
   4.440 -0.7616E-05 -0.4551E-06
   4.460 -0.1108E-04 -0.6767E-06
   4.480 -0.1593E-04 -0.9952E-06
   4.500 -0.2263E-04 -0.1448E-05
   4.520 -0.3178E-04 -0.2083E-05
   4.540 -0.4408E-04 -0.2965E-05
   4.560 -0.6042E-04 -0.4173E-05
   4.580 -0.8180E-04 -0.5809E-05
   4.600 -0.1094E-03 -0.7997E-05
   4.620 -0.1444E-03 -0.1089E-04
   4.640 -0.1882E-03 -0.1465E-04
   4.660 -0.2421E-03 -0.1949E-04
   4.680 -0.3073E-03 -0.2564E-04
   4.700 -0.3847E-03 -0.3333E-04
   4.720 -0.4748E-03 -0.4283E-04
   4.740 -0.5773E-03 -0.5437E-04
   4.760 -0.6912E-03 -0.6820E-04
   4.780 -0.8141E-03 -0.8448E-04
   4.800 -0.9423E-03 -0.1033E-03
   4.820 -0.1070E-02 -0.1247E-03
   4.840 -0.1190E-02 -0.1485E-03
   4.860 -0.1293E-02 -0.1744E-03
   4.880 -0.1367E-02 -0.2017E-03
   4.900 -0.1396E-02 -0.2297E-03
   4.920 -0.1366E-02 -0.2570E-03
   4.940 -0.1258E-02 -0.2821E-03
   4.960 -0.1052E-02 -0.3032E-03
   4.980 -0.7285E-03 -0.3178E-03
   5.000 -0.2663E-03 -0.3231E-03
   5.020  0.3541E-03 -0.3160E-03
   5.040  0.1151E-02 -0.2930E-03
   5.060  0.2139E-02 -0.2502E-03
   5.080  0.3330E-02 -0.1836E-03
   5.100  0.4733E-02 -0.8895E-04
   5.120  0.6350E-02  0.3805E-04
   5.140  0.8177E-02  0.2016E-03
   5.160  0.1021E-01  0.4057E-03
   5.180  0.1242E-01  0.6542E-03
   5.200  0.1481E-01  0.9504E-03
   5.220  0.1734E-01  0.1297E-02
   5.240  0.1998E-01  0.1697E-02
   5.260  0.2272E-01  0.2151E-02
   5.280  0.2550E-01  0.2661E-02
   5.300  0.2832E-01  0.3228E-02
   5.320  0.3113E-01  0.3850E-02
   5.340  0.3392E-01  0.4529E-02
   5.360  0.3667E-01  0.5262E-02
   5.380  0.3935E-01  0.6049E-02
   5.400  0.4198E-01  0.6889E-02
   5.420  0.4453E-01  0.7779E-02
   5.440  0.4701E-01  0.8719E-02
   5.460  0.4943E-01  0.9708E-02
   5.480  0.5179E-01  0.1074E-01
   5.500  0.5409E-01  0.1183E-01
   5.520  0.5634E-01  0.1295E-01
   5.540  0.5854E-01  0.1412E-01
   5.560  0.6069E-01  0.1534E-01
   5.580  0.6278E-01  0.1659E-01
   5.600  0.6480E-01  0.1789E-01
   5.620  0.6675E-01  0.1922E-01
   5.640  0.6862E-01  0.2060E-01
   5.660  0.7039E-01  0.2200E-01
   5.680  0.7208E-01  0.2345E-01
   5.700  0.7370E-01  0.2492E-01
   5.720  0.7525E-01  0.2642E-01
   5.740  0.7676E-01  0.2796E-01
   5.760  0.7827E-01  0.2953E-01
   5.780  0.7980E-01  0.3112E-01
   5.800  0.8138E-01  0.3275E-01
   5.820  0.8306E-01  0.3441E-01
   5.840  0.8484E-01  0.3611E-01
   5.860  0.8673E-01  0.3784E-01
   5.880  0.8873E-01  0.3962E-01
   5.900  0.9082E-01  0.4143E-01
   5.920  0.9294E-01  0.4329E-01
   5.940  0.9504E-01  0.4519E-01
   5.960  0.9705E-01  0.4713E-01
   5.980  0.9887E-01  0.4911E-01
   6.000  0.1004E+00  0.5112E-01
   6.020  0.1016E+00  0.5315E-01
   6.040  0.1024E+00  0.5520E-01
   6.060  0.1028E+00  0.5726E-01
   6.080  0.1026E+00  0.5931E-01
   6.100  0.1019E+00  0.6135E-01
   6.120  0.1008E+00  0.6336E-01
   6.140  0.9922E-01  0.6535E-01
   6.160  0.9736E-01  0.6729E-01
   6.180  0.9533E-01  0.6920E-01
   6.200  0.9327E-01  0.7106E-01
   6.220  0.9140E-01  0.7289E-01
   6.240  0.8995E-01  0.7469E-01
   6.260  0.8919E-01  0.7648E-01
   6.280  0.8943E-01  0.7826E-01
   6.300  0.9104E-01  0.8009E-01
   6.320  0.9444E-01  0.8197E-01
   6.340  0.1001E+00  0.8398E-01
   6.360  0.1085E+00  0.8614E-01
   6.380  0.1202E+00  0.8855E-01
   6.400  0.1359E+00  0.9127E-01
   6.420  0.1561E+00  0.9439E-01
   6.440  0.1816E+00  0.9802E-01
   6.460  0.2130E+00  0.1023E+00
   6.480  0.2509E+00  0.1073E+00
   6.500  0.2957E+00  0.1132E+00
   6.520  0.3480E+00  0.1202E+00
   6.540  0.4081E+00  0.1283E+00
   6.560  0.4760E+00  0.1379E+00
   6.580  0.5518E+00  0.1489E+00
   6.600  0.6354E+00  0.1616E+00
   6.620  0.7263E+00  0.1761E+00
   6.640  0.8241E+00  0.1926E+00
   6.660  0.9283E+00  0.2112E+00
   6.680  0.1038E+01  0.2319E+00
   6.700  0.1153E+01  0.2550E+00
   6.720  0.1271E+01  0.2804E+00
   6.740  0.1393E+01  0.3083E+00
   6.760  0.1517E+01  0.3386E+00
   6.780  0.1643E+01  0.3715E+00
   6.800  0.1771E+01  0.4069E+00
   6.820  0.1898E+01  0.4448E+00
   6.840  0.2025E+01  0.4854E+00
   6.860  0.2152E+01  0.5284E+00
   6.880  0.2277E+01  0.5739E+00
   6.900  0.2399E+01  0.6219E+00
   6.920  0.2519E+01  0.6723E+00
   6.940  0.2634E+01  0.7250E+00
   6.960  0.2744E+01  0.7798E+00
   6.980  0.2847E+01  0.8368E+00
   7.000  0.2943E+01  0.8956E+00
   7.020  0.3029E+01  0.9562E+00
   7.040  0.3106E+01  0.1018E+01
   7.060  0.3171E+01  0.1082E+01
